 I_abs(s)[cm^-1]/c[mg/ml]
       0.00000          0.143707E-01
      0.500000E-02      0.143074E-01
      0.100000E-01      0.141193E-01
      0.150000E-01      0.138117E-01
      0.200000E-01      0.133931E-01
      0.250000E-01      0.128750E-01
      0.300000E-01      0.122710E-01
      0.350000E-01      0.115967E-01
      0.400000E-01      0.108687E-01
      0.450000E-01      0.101042E-01
      0.500000E-01      0.931982E-02
      0.550000E-01      0.853176E-02
      0.600000E-01      0.775465E-02
      0.650000E-01      0.700140E-02
      0.700000E-01      0.628281E-02
      0.750000E-01      0.560743E-02
      0.800000E-01      0.498148E-02
      0.850000E-01      0.440890E-02
      0.900000E-01      0.389149E-02
      0.950000E-01      0.342920E-02
      0.100000          0.302036E-02
      0.105000          0.266202E-02
      0.110000          0.235034E-02
      0.115000          0.208084E-02
      0.120000          0.184876E-02
      0.125000          0.164931E-02
      0.130000          0.147786E-02
      0.135000          0.133014E-02
      0.140000          0.120230E-02
      0.145000          0.109102E-02
      0.150000          0.993475E-03
      0.155000          0.907356E-03
      0.160000          0.830800E-03
      0.165000          0.762335E-03
      0.170000          0.700817E-03
      0.175000          0.645355E-03
      0.180000          0.595253E-03
      0.185000          0.549947E-03
      0.190000          0.508972E-03
      0.195000          0.471920E-03
      0.200000          0.438427E-03
      0.205000          0.408153E-03
      0.210000          0.380785E-03
      0.215000          0.356030E-03
      0.220000          0.333618E-03
      0.225000          0.313307E-03
      0.230000          0.294883E-03
      0.235000          0.278159E-03
      0.240000          0.262979E-03
      0.245000          0.249206E-03
      0.250000          0.236729E-03
      0.255000          0.225447E-03
      0.260000          0.215275E-03
      0.265000          0.206132E-03
      0.270000          0.197942E-03
      0.275000          0.190631E-03
      0.280000          0.184128E-03
      0.285000          0.178361E-03
      0.290000          0.173263E-03
      0.295000          0.168770E-03
      0.300000          0.164825E-03
      0.305000          0.161373E-03
      0.310000          0.158369E-03
      0.315000          0.155770E-03
      0.320000          0.153538E-03
      0.325000          0.151636E-03
      0.330000          0.150030E-03
      0.335000          0.148680E-03
      0.340000          0.147544E-03
      0.345000          0.146577E-03
      0.350000          0.145726E-03
      0.355000          0.144936E-03
      0.360000          0.144149E-03
      0.365000          0.143306E-03
      0.370000          0.142354E-03
      0.375000          0.141242E-03
      0.380000          0.139931E-03
      0.385000          0.138394E-03
      0.390000          0.136618E-03
      0.395000          0.134604E-03
      0.400000          0.132371E-03
      0.405000          0.129952E-03
      0.410000          0.127391E-03
      0.415000          0.124744E-03
      0.420000          0.122071E-03
      0.425000          0.119435E-03
      0.430000          0.116894E-03
      0.435000          0.114503E-03
      0.440000          0.112303E-03
      0.445000          0.110326E-03
      0.450000          0.108588E-03
      0.455000          0.107088E-03
      0.460000          0.105813E-03
      0.465000          0.104737E-03
      0.470000          0.103820E-03
      0.475000          0.103018E-03
      0.480000          0.102281E-03
      0.485000          0.101560E-03
      0.490000          0.100807E-03
      0.495000          0.999813E-04
      0.500000          0.990526E-04
