 I_abs(s)[cm^-1]/c[mg/ml]
       0.00000          0.142369E-01
      0.500000E-02      0.141553E-01
      0.100000E-01      0.139135E-01
      0.150000E-01      0.135215E-01
      0.200000E-01      0.129947E-01
      0.250000E-01      0.123533E-01
      0.300000E-01      0.116209E-01
      0.350000E-01      0.108227E-01
      0.400000E-01      0.998446E-02
      0.450000E-01      0.913079E-02
      0.500000E-01      0.828392E-02
      0.550000E-01      0.746287E-02
      0.600000E-01      0.668282E-02
      0.650000E-01      0.595489E-02
      0.700000E-01      0.528619E-02
      0.750000E-01      0.468022E-02
      0.800000E-01      0.413734E-02
      0.850000E-01      0.365546E-02
      0.900000E-01      0.323074E-02
      0.950000E-01      0.285821E-02
      0.100000          0.253241E-02
      0.105000          0.224779E-02
      0.110000          0.199910E-02
      0.115000          0.178157E-02
      0.120000          0.159102E-02
      0.125000          0.142390E-02
      0.130000          0.127721E-02
      0.135000          0.114847E-02
      0.140000          0.103559E-02
      0.145000          0.936831E-03
      0.150000          0.850703E-03
      0.155000          0.775906E-03
      0.160000          0.711282E-03
      0.165000          0.655780E-03
      0.170000          0.608424E-03
      0.175000          0.568285E-03
      0.180000          0.534470E-03
      0.185000          0.506104E-03
      0.190000          0.482331E-03
      0.195000          0.462317E-03
      0.200000          0.445262E-03
      0.205000          0.430420E-03
      0.210000          0.417121E-03
      0.215000          0.404792E-03
      0.220000          0.392977E-03
      0.225000          0.381346E-03
      0.230000          0.369695E-03
      0.235000          0.357932E-03
      0.240000          0.346058E-03
      0.245000          0.334138E-03
      0.250000          0.322270E-03
      0.255000          0.310553E-03
      0.260000          0.299068E-03
      0.265000          0.287859E-03
      0.270000          0.276929E-03
      0.275000          0.266242E-03
      0.280000          0.255740E-03
      0.285000          0.245356E-03
      0.290000          0.235032E-03
      0.295000          0.224736E-03
      0.300000          0.214470E-03
      0.305000          0.204278E-03
      0.310000          0.194238E-03
      0.315000          0.184458E-03
      0.320000          0.175061E-03
      0.325000          0.166173E-03
      0.330000          0.157908E-03
      0.335000          0.150358E-03
      0.340000          0.143587E-03
      0.345000          0.137626E-03
      0.350000          0.132477E-03
      0.355000          0.128112E-03
      0.360000          0.124482E-03
      0.365000          0.121521E-03
      0.370000          0.119154E-03
      0.375000          0.117298E-03
      0.380000          0.115867E-03
      0.385000          0.114777E-03
      0.390000          0.113943E-03
      0.395000          0.113288E-03
      0.400000          0.112739E-03
      0.405000          0.112230E-03
      0.410000          0.111708E-03
      0.415000          0.111130E-03
      0.420000          0.110466E-03
      0.425000          0.109698E-03
      0.430000          0.108820E-03
      0.435000          0.107836E-03
      0.440000          0.106756E-03
      0.445000          0.105594E-03
      0.450000          0.104366E-03
      0.455000          0.103088E-03
      0.460000          0.101775E-03
      0.465000          0.100440E-03
      0.470000          0.990967E-04
      0.475000          0.977600E-04
      0.480000          0.964454E-04
      0.485000          0.951698E-04
      0.490000          0.939500E-04
      0.495000          0.928011E-04
      0.500000          0.917333E-04
