 I_abs(s)[cm^-1]/c[mg/ml]
       0.00000          0.136238E-01
      0.500000E-02      0.134588E-01
      0.100000E-01      0.129757E-01
      0.150000E-01      0.122090E-01
      0.200000E-01      0.112120E-01
      0.250000E-01      0.100512E-01
      0.300000E-01      0.879937E-02
      0.350000E-01      0.752876E-02
      0.400000E-01      0.630431E-02
      0.450000E-01      0.517864E-02
      0.500000E-01      0.418876E-02
      0.550000E-01      0.335485E-02
      0.600000E-01      0.268118E-02
      0.650000E-01      0.215858E-02
      0.700000E-01      0.176812E-02
      0.750000E-01      0.148530E-02
      0.800000E-01      0.128399E-02
      0.850000E-01      0.113987E-02
      0.900000E-01      0.103276E-02
      0.950000E-01      0.947822E-03
      0.100000          0.875677E-03
      0.105000          0.811677E-03
      0.110000          0.754584E-03
      0.115000          0.705073E-03
      0.120000          0.664354E-03
      0.125000          0.633134E-03
      0.130000          0.611052E-03
      0.135000          0.596582E-03
      0.140000          0.587312E-03
      0.145000          0.580452E-03
      0.150000          0.573391E-03
      0.155000          0.564168E-03
      0.160000          0.551734E-03
      0.165000          0.535990E-03
      0.170000          0.517613E-03
      0.175000          0.497733E-03
      0.180000          0.477571E-03
      0.185000          0.458121E-03
      0.190000          0.439948E-03
      0.195000          0.423132E-03
      0.200000          0.407355E-03
      0.205000          0.392092E-03
      0.210000          0.376840E-03
      0.215000          0.361323E-03
      0.220000          0.345617E-03
      0.225000          0.330173E-03
      0.230000          0.315727E-03
      0.235000          0.303129E-03
      0.240000          0.293144E-03
      0.245000          0.286254E-03
      0.250000          0.282528E-03
      0.255000          0.281580E-03
      0.260000          0.282624E-03
      0.265000          0.284609E-03
      0.270000          0.286411E-03
      0.275000          0.287026E-03
      0.280000          0.285734E-03
      0.285000          0.282204E-03
      0.290000          0.276513E-03
      0.295000          0.269085E-03
      0.300000          0.260577E-03
      0.305000          0.251723E-03
      0.310000          0.243190E-03
      0.315000          0.235456E-03
      0.320000          0.228750E-03
      0.325000          0.223040E-03
      0.330000          0.218090E-03
      0.335000          0.213541E-03
      0.340000          0.209018E-03
      0.345000          0.204226E-03
      0.350000          0.199012E-03
      0.355000          0.193396E-03
      0.360000          0.187554E-03
      0.365000          0.181773E-03
      0.370000          0.176373E-03
      0.375000          0.171642E-03
      0.380000          0.167768E-03
      0.385000          0.164802E-03
      0.390000          0.162653E-03
      0.395000          0.161109E-03
      0.400000          0.159878E-03
      0.405000          0.158646E-03
      0.410000          0.157130E-03
      0.415000          0.155124E-03
      0.420000          0.152524E-03
      0.425000          0.149333E-03
      0.430000          0.145648E-03
      0.435000          0.141628E-03
      0.440000          0.137462E-03
      0.445000          0.133330E-03
      0.450000          0.129375E-03
      0.455000          0.125688E-03
      0.460000          0.122299E-03
      0.465000          0.119185E-03
      0.470000          0.116286E-03
      0.475000          0.113521E-03
      0.480000          0.110809E-03
      0.485000          0.108084E-03
      0.490000          0.105306E-03
      0.495000          0.102461E-03
      0.500000          0.995582E-04
