 I_abs(s)[cm^-1]/c[mg/ml]
       0.00000          0.148395E-01
      0.500000E-02      0.147903E-01
      0.100000E-01      0.146437E-01
      0.150000E-01      0.144026E-01
      0.200000E-01      0.140722E-01
      0.250000E-01      0.136591E-01
      0.300000E-01      0.131716E-01
      0.350000E-01      0.126190E-01
      0.400000E-01      0.120118E-01
      0.450000E-01      0.113609E-01
      0.500000E-01      0.106775E-01
      0.550000E-01      0.997274E-02
      0.600000E-01      0.925739E-02
      0.650000E-01      0.854155E-02
      0.700000E-01      0.783448E-02
      0.750000E-01      0.714437E-02
      0.800000E-01      0.647829E-02
      0.850000E-01      0.584207E-02
      0.900000E-01      0.524030E-02
      0.950000E-01      0.467633E-02
      0.100000          0.415241E-02
      0.105000          0.366968E-02
      0.110000          0.322840E-02
      0.115000          0.282799E-02
      0.120000          0.246725E-02
      0.125000          0.214445E-02
      0.130000          0.185745E-02
      0.135000          0.160390E-02
      0.140000          0.138127E-02
      0.145000          0.118696E-02
      0.150000          0.101839E-02
      0.155000          0.873051E-03
      0.160000          0.748540E-03
      0.165000          0.642587E-03
      0.170000          0.553073E-03
      0.175000          0.478039E-03
      0.180000          0.415684E-03
      0.185000          0.364362E-03
      0.190000          0.322575E-03
      0.195000          0.288967E-03
      0.200000          0.262309E-03
      0.205000          0.241499E-03
      0.210000          0.225550E-03
      0.215000          0.213584E-03
      0.220000          0.204826E-03
      0.225000          0.198600E-03
      0.230000          0.194319E-03
      0.235000          0.191486E-03
      0.240000          0.189682E-03
      0.245000          0.188566E-03
      0.250000          0.187864E-03
      0.255000          0.187363E-03
      0.260000          0.186907E-03
      0.265000          0.186387E-03
      0.270000          0.185735E-03
      0.275000          0.184916E-03
      0.280000          0.183921E-03
      0.285000          0.182762E-03
      0.290000          0.181465E-03
      0.295000          0.180063E-03
      0.300000          0.178594E-03
      0.305000          0.177095E-03
      0.310000          0.175599E-03
      0.315000          0.174133E-03
      0.320000          0.172715E-03
      0.325000          0.171353E-03
      0.330000          0.170048E-03
      0.335000          0.168789E-03
      0.340000          0.167559E-03
      0.345000          0.166333E-03
      0.350000          0.165080E-03
      0.355000          0.163768E-03
      0.360000          0.162364E-03
      0.365000          0.160837E-03
      0.370000          0.159159E-03
      0.375000          0.157308E-03
      0.380000          0.155270E-03
      0.385000          0.153037E-03
      0.390000          0.150612E-03
      0.395000          0.148004E-03
      0.400000          0.145230E-03
      0.405000          0.142316E-03
      0.410000          0.139291E-03
      0.415000          0.136189E-03
      0.420000          0.133047E-03
      0.425000          0.129902E-03
      0.430000          0.126791E-03
      0.435000          0.123747E-03
      0.440000          0.120800E-03
      0.445000          0.117977E-03
      0.450000          0.115299E-03
      0.455000          0.112781E-03
      0.460000          0.110433E-03
      0.465000          0.108261E-03
      0.470000          0.106263E-03
      0.475000          0.104435E-03
      0.480000          0.102766E-03
      0.485000          0.101244E-03
      0.490000          0.998522E-04
      0.495000          0.985702E-04
      0.500000          0.973768E-04
