 I_abs(s)[cm^-1]/c[mg/ml]
       0.00000          0.139686E-01
      0.500000E-02      0.138601E-01
      0.100000E-01      0.135402E-01
      0.150000E-01      0.130249E-01
      0.200000E-01      0.123394E-01
      0.250000E-01      0.115162E-01
      0.300000E-01      0.105925E-01
      0.350000E-01      0.960720E-02
      0.400000E-01      0.859871E-02
      0.450000E-01      0.760202E-02
      0.500000E-01      0.664700E-02
      0.550000E-01      0.575699E-02
      0.600000E-01      0.494828E-02
      0.650000E-01      0.423007E-02
      0.700000E-01      0.360521E-02
      0.750000E-01      0.307121E-02
      0.800000E-01      0.262160E-02
      0.850000E-01      0.224736E-02
      0.900000E-01      0.193823E-02
      0.950000E-01      0.168386E-02
      0.100000          0.147465E-02
      0.105000          0.130229E-02
      0.110000          0.115994E-02
      0.115000          0.104226E-02
      0.120000          0.945186E-03
      0.125000          0.865633E-03
      0.130000          0.801168E-03
      0.135000          0.749733E-03
      0.140000          0.709429E-03
      0.145000          0.678399E-03
      0.150000          0.654795E-03
      0.155000          0.636805E-03
      0.160000          0.622731E-03
      0.165000          0.611067E-03
      0.170000          0.600567E-03
      0.175000          0.590287E-03
      0.180000          0.579586E-03
      0.185000          0.568096E-03
      0.190000          0.555664E-03
      0.195000          0.542291E-03
      0.200000          0.528063E-03
      0.205000          0.513102E-03
      0.210000          0.497525E-03
      0.215000          0.481437E-03
      0.220000          0.464930E-03
      0.225000          0.448096E-03
      0.230000          0.431045E-03
      0.235000          0.413917E-03
      0.240000          0.396889E-03
      0.245000          0.380171E-03
      0.250000          0.363989E-03
      0.255000          0.348564E-03
      0.260000          0.334091E-03
      0.265000          0.320713E-03
      0.270000          0.308509E-03
      0.275000          0.297485E-03
      0.280000          0.287582E-03
      0.285000          0.278685E-03
      0.290000          0.270643E-03
      0.295000          0.263291E-03
      0.300000          0.256475E-03
      0.305000          0.250061E-03
      0.310000          0.243958E-03
      0.315000          0.238114E-03
      0.320000          0.232516E-03
      0.325000          0.227186E-03
      0.330000          0.222164E-03
      0.335000          0.217494E-03
      0.340000          0.213217E-03
      0.345000          0.209351E-03
      0.350000          0.205891E-03
      0.355000          0.202799E-03
      0.360000          0.200009E-03
      0.365000          0.197427E-03
      0.370000          0.194945E-03
      0.375000          0.192441E-03
      0.380000          0.189799E-03
      0.385000          0.186911E-03
      0.390000          0.183693E-03
      0.395000          0.180089E-03
      0.400000          0.176078E-03
      0.405000          0.171673E-03
      0.410000          0.166925E-03
      0.415000          0.161912E-03
      0.420000          0.156741E-03
      0.425000          0.151529E-03
      0.430000          0.146401E-03
      0.435000          0.141474E-03
      0.440000          0.136850E-03
      0.445000          0.132609E-03
      0.450000          0.128799E-03
      0.455000          0.125440E-03
      0.460000          0.122521E-03
      0.465000          0.120006E-03
      0.470000          0.117841E-03
      0.475000          0.115961E-03
      0.480000          0.114301E-03
      0.485000          0.112798E-03
      0.490000          0.111404E-03
      0.495000          0.110086E-03
      0.500000          0.108824E-03
