 I_abs(s)[cm^-1]/c[mg/ml]
       0.00000          0.141639E-01
      0.500000E-02      0.140760E-01
      0.100000E-01      0.138154E-01
      0.150000E-01      0.133914E-01
      0.200000E-01      0.128190E-01
      0.250000E-01      0.121180E-01
      0.300000E-01      0.113122E-01
      0.350000E-01      0.104279E-01
      0.400000E-01      0.949272E-02
      0.450000E-01      0.853450E-02
      0.500000E-01      0.757971E-02
      0.550000E-01      0.665255E-02
      0.600000E-01      0.577392E-02
      0.650000E-01      0.496077E-02
      0.700000E-01      0.422565E-02
      0.750000E-01      0.357660E-02
      0.800000E-01      0.301720E-02
      0.850000E-01      0.254693E-02
      0.900000E-01      0.216174E-02
      0.950000E-01      0.185466E-02
      0.100000          0.161660E-02
      0.105000          0.143714E-02
      0.110000          0.130527E-02
      0.115000          0.121012E-02
      0.120000          0.114150E-02
      0.125000          0.109042E-02
      0.130000          0.104935E-02
      0.135000          0.101242E-02
      0.140000          0.975411E-03
      0.145000          0.935734E-03
      0.150000          0.892190E-03
      0.155000          0.844749E-03
      0.160000          0.794256E-03
      0.165000          0.742142E-03
      0.170000          0.690132E-03
      0.175000          0.640005E-03
      0.180000          0.593379E-03
      0.185000          0.551568E-03
      0.190000          0.515488E-03
      0.195000          0.485609E-03
      0.200000          0.461972E-03
      0.205000          0.444225E-03
      0.210000          0.431703E-03
      0.215000          0.423507E-03
      0.220000          0.418610E-03
      0.225000          0.415937E-03
      0.230000          0.414455E-03
      0.235000          0.413237E-03
      0.240000          0.411506E-03
      0.245000          0.408672E-03
      0.250000          0.404336E-03
      0.255000          0.398291E-03
      0.260000          0.390504E-03
      0.265000          0.381087E-03
      0.270000          0.370269E-03
      0.275000          0.358355E-03
      0.280000          0.345697E-03
      0.285000          0.332661E-03
      0.290000          0.319593E-03
      0.295000          0.306808E-03
      0.300000          0.294564E-03
      0.305000          0.283058E-03
      0.310000          0.272418E-03
      0.315000          0.262709E-03
      0.320000          0.253934E-03
      0.325000          0.246048E-03
      0.330000          0.238965E-03
      0.335000          0.232572E-03
      0.340000          0.226744E-03
      0.345000          0.221352E-03
      0.350000          0.216281E-03
      0.355000          0.211427E-03
      0.360000          0.206715E-03
      0.365000          0.202092E-03
      0.370000          0.197533E-03
      0.375000          0.193037E-03
      0.380000          0.188622E-03
      0.385000          0.184318E-03
      0.390000          0.180163E-03
      0.395000          0.176195E-03
      0.400000          0.172442E-03
      0.405000          0.168922E-03
      0.410000          0.165638E-03
      0.415000          0.162575E-03
      0.420000          0.159700E-03
      0.425000          0.156967E-03
      0.430000          0.154319E-03
      0.435000          0.151693E-03
      0.440000          0.149025E-03
      0.445000          0.146257E-03
      0.450000          0.143343E-03
      0.455000          0.140248E-03
      0.460000          0.136958E-03
      0.465000          0.133475E-03
      0.470000          0.129822E-03
      0.475000          0.126035E-03
      0.480000          0.122166E-03
      0.485000          0.118275E-03
      0.490000          0.114428E-03
      0.495000          0.110689E-03
      0.500000          0.107120E-03
