 I_abs(s)[cm^-1]/c[mg/ml]
       0.00000          0.144159E-01
      0.500000E-02      0.143359E-01
      0.100000E-01      0.140983E-01
      0.150000E-01      0.137107E-01
      0.200000E-01      0.131850E-01
      0.250000E-01      0.125375E-01
      0.300000E-01      0.117873E-01
      0.350000E-01      0.109563E-01
      0.400000E-01      0.100678E-01
      0.450000E-01      0.914520E-02
      0.500000E-01      0.821178E-02
      0.550000E-01      0.728923E-02
      0.600000E-01      0.639709E-02
      0.650000E-01      0.555209E-02
      0.700000E-01      0.476776E-02
      0.750000E-01      0.405414E-02
      0.800000E-01      0.341773E-02
      0.850000E-01      0.286163E-02
      0.900000E-01      0.238578E-02
      0.950000E-01      0.198740E-02
      0.100000          0.166145E-02
      0.105000          0.140118E-02
      0.110000          0.119870E-02
      0.115000          0.104549E-02
      0.120000          0.932937E-03
      0.125000          0.852721E-03
      0.130000          0.797167E-03
      0.135000          0.759484E-03
      0.140000          0.733913E-03
      0.145000          0.715792E-03
      0.150000          0.701536E-03
      0.155000          0.688559E-03
      0.160000          0.675151E-03
      0.165000          0.660330E-03
      0.170000          0.643672E-03
      0.175000          0.625162E-03
      0.180000          0.605041E-03
      0.185000          0.583692E-03
      0.190000          0.561541E-03
      0.195000          0.538994E-03
      0.200000          0.516396E-03
      0.205000          0.494018E-03
      0.210000          0.472055E-03
      0.215000          0.450644E-03
      0.220000          0.429878E-03
      0.225000          0.409831E-03
      0.230000          0.390573E-03
      0.235000          0.372180E-03
      0.240000          0.354743E-03
      0.245000          0.338361E-03
      0.250000          0.323135E-03
      0.255000          0.309156E-03
      0.260000          0.296494E-03
      0.265000          0.285183E-03
      0.270000          0.275210E-03
      0.275000          0.266517E-03
      0.280000          0.258996E-03
      0.285000          0.252493E-03
      0.290000          0.246824E-03
      0.295000          0.241785E-03
      0.300000          0.237166E-03
      0.305000          0.232770E-03
      0.310000          0.228427E-03
      0.315000          0.224001E-03
      0.320000          0.219402E-03
      0.325000          0.214588E-03
      0.330000          0.209559E-03
      0.335000          0.204358E-03
      0.340000          0.199058E-03
      0.345000          0.193748E-03
      0.350000          0.188530E-03
      0.355000          0.183499E-03
      0.360000          0.178738E-03
      0.365000          0.174309E-03
      0.370000          0.170248E-03
      0.375000          0.166566E-03
      0.380000          0.163250E-03
      0.385000          0.160264E-03
      0.390000          0.157561E-03
      0.395000          0.155082E-03
      0.400000          0.152771E-03
      0.405000          0.150575E-03
      0.410000          0.148452E-03
      0.415000          0.146373E-03
      0.420000          0.144322E-03
      0.425000          0.142297E-03
      0.430000          0.140307E-03
      0.435000          0.138365E-03
      0.440000          0.136488E-03
      0.445000          0.134692E-03
      0.450000          0.132982E-03
      0.455000          0.131358E-03
      0.460000          0.129806E-03
      0.465000          0.128304E-03
      0.470000          0.126817E-03
      0.475000          0.125306E-03
      0.480000          0.123727E-03
      0.485000          0.122037E-03
      0.490000          0.120201E-03
      0.495000          0.118192E-03
      0.500000          0.115994E-03
