 I_abs(s)[cm^-1]/c[mg/ml]
       0.00000          0.141091E-01
      0.500000E-02      0.140230E-01
      0.100000E-01      0.137682E-01
      0.150000E-01      0.133543E-01
      0.200000E-01      0.127970E-01
      0.250000E-01      0.121169E-01
      0.300000E-01      0.113383E-01
      0.350000E-01      0.104881E-01
      0.400000E-01      0.959386E-02
      0.450000E-01      0.868288E-02
      0.500000E-01      0.778060E-02
      0.550000E-01      0.690949E-02
      0.600000E-01      0.608823E-02
      0.650000E-01      0.533115E-02
      0.700000E-01      0.464793E-02
      0.750000E-01      0.404371E-02
      0.800000E-01      0.351939E-02
      0.850000E-01      0.307222E-02
      0.900000E-01      0.269652E-02
      0.950000E-01      0.238453E-02
      0.100000          0.212719E-02
      0.105000          0.191503E-02
      0.110000          0.173881E-02
      0.115000          0.159010E-02
      0.120000          0.146170E-02
      0.125000          0.134786E-02
      0.130000          0.124435E-02
      0.135000          0.114838E-02
      0.140000          0.105842E-02
      0.145000          0.973911E-03
      0.150000          0.895014E-03
      0.155000          0.822260E-03
      0.160000          0.756293E-03
      0.165000          0.697647E-03
      0.170000          0.646581E-03
      0.175000          0.602998E-03
      0.180000          0.566421E-03
      0.185000          0.536038E-03
      0.190000          0.510784E-03
      0.195000          0.489456E-03
      0.200000          0.470830E-03
      0.205000          0.453779E-03
      0.210000          0.437371E-03
      0.215000          0.420926E-03
      0.220000          0.404057E-03
      0.225000          0.386662E-03
      0.230000          0.368896E-03
      0.235000          0.351110E-03
      0.240000          0.333782E-03
      0.245000          0.317440E-03
      0.250000          0.302585E-03
      0.255000          0.289631E-03
      0.260000          0.278854E-03
      0.265000          0.270367E-03
      0.270000          0.264112E-03
      0.275000          0.259871E-03
      0.280000          0.257298E-03
      0.285000          0.255956E-03
      0.290000          0.255362E-03
      0.295000          0.255034E-03
      0.300000          0.254538E-03
      0.305000          0.253513E-03
      0.310000          0.251706E-03
      0.315000          0.248975E-03
      0.320000          0.245293E-03
      0.325000          0.240738E-03
      0.330000          0.235470E-03
      0.335000          0.229709E-03
      0.340000          0.223702E-03
      0.345000          0.217701E-03
      0.350000          0.211933E-03
      0.355000          0.206581E-03
      0.360000          0.201768E-03
      0.365000          0.197555E-03
      0.370000          0.193933E-03
      0.375000          0.190838E-03
      0.380000          0.188153E-03
      0.385000          0.185731E-03
      0.390000          0.183407E-03
      0.395000          0.181015E-03
      0.400000          0.178407E-03
      0.405000          0.175460E-03
      0.410000          0.172091E-03
      0.415000          0.168260E-03
      0.420000          0.163971E-03
      0.425000          0.159269E-03
      0.430000          0.154238E-03
      0.435000          0.148986E-03
      0.440000          0.143642E-03
      0.445000          0.138341E-03
      0.450000          0.133216E-03
      0.455000          0.128386E-03
      0.460000          0.123952E-03
      0.465000          0.119989E-03
      0.470000          0.116545E-03
      0.475000          0.113638E-03
      0.480000          0.111257E-03
      0.485000          0.109370E-03
      0.490000          0.107921E-03
      0.495000          0.106844E-03
      0.500000          0.106060E-03
