 I_abs(s)[cm^-1]/c[mg/ml]
       0.00000          0.146223E-01
      0.500000E-02      0.145603E-01
      0.100000E-01      0.143760E-01
      0.150000E-01      0.140743E-01
      0.200000E-01      0.136631E-01
      0.250000E-01      0.131528E-01
      0.300000E-01      0.125563E-01
      0.350000E-01      0.118879E-01
      0.400000E-01      0.111631E-01
      0.450000E-01      0.103977E-01
      0.500000E-01      0.960769E-02
      0.550000E-01      0.880804E-02
      0.600000E-01      0.801277E-02
      0.650000E-01      0.723438E-02
      0.700000E-01      0.648360E-02
      0.750000E-01      0.576923E-02
      0.800000E-01      0.509809E-02
      0.850000E-01      0.447510E-02
      0.900000E-01      0.390331E-02
      0.950000E-01      0.338419E-02
      0.100000          0.291777E-02
      0.105000          0.250293E-02
      0.110000          0.213762E-02
      0.115000          0.181911E-02
      0.120000          0.154423E-02
      0.125000          0.130950E-02
      0.130000          0.111129E-02
      0.135000          0.945982E-03
      0.140000          0.809988E-03
      0.145000          0.699844E-03
      0.150000          0.612232E-03
      0.155000          0.544005E-03
      0.160000          0.492199E-03
      0.165000          0.454047E-03
      0.170000          0.426982E-03
      0.175000          0.408654E-03
      0.180000          0.396941E-03
      0.185000          0.389962E-03
      0.190000          0.386088E-03
      0.195000          0.383954E-03
      0.200000          0.382456E-03
      0.205000          0.380750E-03
      0.210000          0.378237E-03
      0.215000          0.374544E-03
      0.220000          0.369490E-03
      0.225000          0.363059E-03
      0.230000          0.355359E-03
      0.235000          0.346581E-03
      0.240000          0.336969E-03
      0.245000          0.326782E-03
      0.250000          0.316270E-03
      0.255000          0.305658E-03
      0.260000          0.295126E-03
      0.265000          0.284811E-03
      0.270000          0.274807E-03
      0.275000          0.265166E-03
      0.280000          0.255914E-03
      0.285000          0.247053E-03
      0.290000          0.238579E-03
      0.295000          0.230485E-03
      0.300000          0.222768E-03
      0.305000          0.215435E-03
      0.310000          0.208502E-03
      0.315000          0.201991E-03
      0.320000          0.195929E-03
      0.325000          0.190341E-03
      0.330000          0.185249E-03
      0.335000          0.180664E-03
      0.340000          0.176584E-03
      0.345000          0.172992E-03
      0.350000          0.169857E-03
      0.355000          0.167134E-03
      0.360000          0.164767E-03
      0.365000          0.162692E-03
      0.370000          0.160839E-03
      0.375000          0.159139E-03
      0.380000          0.157524E-03
      0.385000          0.155933E-03
      0.390000          0.154309E-03
      0.395000          0.152605E-03
      0.400000          0.150782E-03
      0.405000          0.148809E-03
      0.410000          0.146663E-03
      0.415000          0.144328E-03
      0.420000          0.141798E-03
      0.425000          0.139071E-03
      0.430000          0.136152E-03
      0.435000          0.133054E-03
      0.440000          0.129796E-03
      0.445000          0.126406E-03
      0.450000          0.122916E-03
      0.455000          0.119367E-03
      0.460000          0.115802E-03
      0.465000          0.112270E-03
      0.470000          0.108820E-03
      0.475000          0.105500E-03
      0.480000          0.102357E-03
      0.485000          0.994298E-04
      0.490000          0.967498E-04
      0.495000          0.943393E-04
      0.500000          0.922100E-04
