 I_abs(s)[cm^-1]/c[mg/ml]
       0.00000          0.144080E-01
      0.500000E-02      0.143467E-01
      0.100000E-01      0.141642E-01
      0.150000E-01      0.138652E-01
      0.200000E-01      0.134571E-01
      0.250000E-01      0.129500E-01
      0.300000E-01      0.123560E-01
      0.350000E-01      0.116892E-01
      0.400000E-01      0.109648E-01
      0.450000E-01      0.101985E-01
      0.500000E-01      0.940657E-02
      0.550000E-01      0.860448E-02
      0.600000E-01      0.780703E-02
      0.650000E-01      0.702770E-02
      0.700000E-01      0.627833E-02
      0.750000E-01      0.556886E-02
      0.800000E-01      0.490717E-02
      0.850000E-01      0.429904E-02
      0.900000E-01      0.374812E-02
      0.950000E-01      0.325609E-02
      0.100000          0.282278E-02
      0.105000          0.244646E-02
      0.110000          0.212405E-02
      0.115000          0.185145E-02
      0.120000          0.162384E-02
      0.125000          0.143593E-02
      0.130000          0.128227E-02
      0.135000          0.115748E-02
      0.140000          0.105642E-02
      0.145000          0.974364E-03
      0.150000          0.907108E-03
      0.155000          0.851029E-03
      0.160000          0.803109E-03
      0.165000          0.760927E-03
      0.170000          0.722621E-03
      0.175000          0.686829E-03
      0.180000          0.652619E-03
      0.185000          0.619410E-03
      0.190000          0.586897E-03
      0.195000          0.554978E-03
      0.200000          0.523686E-03
      0.205000          0.493139E-03
      0.210000          0.463499E-03
      0.215000          0.434936E-03
      0.220000          0.407615E-03
      0.225000          0.381677E-03
      0.230000          0.357244E-03
      0.235000          0.334408E-03
      0.240000          0.313244E-03
      0.245000          0.293804E-03
      0.250000          0.276126E-03
      0.255000          0.260231E-03
      0.260000          0.246125E-03
      0.265000          0.233796E-03
      0.270000          0.223206E-03
      0.275000          0.214293E-03
      0.280000          0.206963E-03
      0.285000          0.201091E-03
      0.290000          0.196514E-03
      0.295000          0.193041E-03
      0.300000          0.190450E-03
      0.305000          0.188499E-03
      0.310000          0.186937E-03
      0.315000          0.185509E-03
      0.320000          0.183975E-03
      0.325000          0.182119E-03
      0.330000          0.179759E-03
      0.335000          0.176760E-03
      0.340000          0.173036E-03
      0.345000          0.168558E-03
      0.350000          0.163354E-03
      0.355000          0.157503E-03
      0.360000          0.151131E-03
      0.365000          0.144403E-03
      0.370000          0.137510E-03
      0.375000          0.130658E-03
      0.380000          0.124052E-03
      0.385000          0.117890E-03
      0.390000          0.112346E-03
      0.395000          0.107562E-03
      0.400000          0.103641E-03
      0.405000          0.100647E-03
      0.410000          0.985957E-04
      0.415000          0.974620E-04
      0.420000          0.971815E-04
      0.425000          0.976566E-04
      0.430000          0.987642E-04
      0.435000          0.100364E-03
      0.440000          0.102308E-03
      0.445000          0.104446E-03
      0.450000          0.106640E-03
      0.455000          0.108763E-03
      0.460000          0.110709E-03
      0.465000          0.112397E-03
      0.470000          0.113769E-03
      0.475000          0.114792E-03
      0.480000          0.115457E-03
      0.485000          0.115776E-03
      0.490000          0.115776E-03
      0.495000          0.115497E-03
      0.500000          0.114987E-03
