 I_abs(s)[cm^-1]/c[mg/ml]
       0.00000          0.144555E-01
      0.500000E-02      0.143873E-01
      0.100000E-01      0.141848E-01
      0.150000E-01      0.138544E-01
      0.200000E-01      0.134061E-01
      0.250000E-01      0.128533E-01
      0.300000E-01      0.122120E-01
      0.350000E-01      0.115002E-01
      0.400000E-01      0.107366E-01
      0.450000E-01      0.994027E-02
      0.500000E-01      0.912944E-02
      0.550000E-01      0.832109E-02
      0.600000E-01      0.753024E-02
      0.650000E-01      0.676957E-02
      0.700000E-01      0.604917E-02
      0.750000E-01      0.537651E-02
      0.800000E-01      0.475645E-02
      0.850000E-01      0.419154E-02
      0.900000E-01      0.368226E-02
      0.950000E-01      0.322742E-02
      0.100000          0.282455E-02
      0.105000          0.247031E-02
      0.110000          0.216084E-02
      0.115000          0.189205E-02
      0.120000          0.165988E-02
      0.125000          0.146048E-02
      0.130000          0.129025E-02
      0.135000          0.114593E-02
      0.140000          0.102456E-02
      0.145000          0.923461E-03
      0.150000          0.840138E-03
      0.155000          0.772258E-03
      0.160000          0.717585E-03
      0.165000          0.673954E-03
      0.170000          0.639265E-03
      0.175000          0.611499E-03
      0.180000          0.588755E-03
      0.185000          0.569293E-03
      0.190000          0.551587E-03
      0.195000          0.534370E-03
      0.200000          0.516673E-03
      0.205000          0.497838E-03
      0.210000          0.477518E-03
      0.215000          0.455658E-03
      0.220000          0.432449E-03
      0.225000          0.408277E-03
      0.230000          0.383651E-03
      0.235000          0.359144E-03
      0.240000          0.335321E-03
      0.245000          0.312687E-03
      0.250000          0.291645E-03
      0.255000          0.272470E-03
      0.260000          0.255298E-03
      0.265000          0.240137E-03
      0.270000          0.226880E-03
      0.275000          0.215343E-03
      0.280000          0.205290E-03
      0.285000          0.196477E-03
      0.290000          0.188675E-03
      0.295000          0.181700E-03
      0.300000          0.175430E-03
      0.305000          0.169802E-03
      0.310000          0.164816E-03
      0.315000          0.160520E-03
      0.320000          0.156988E-03
      0.325000          0.154305E-03
      0.330000          0.152535E-03
      0.335000          0.151709E-03
      0.340000          0.151809E-03
      0.345000          0.152755E-03
      0.350000          0.154408E-03
      0.355000          0.156574E-03
      0.360000          0.159018E-03
      0.365000          0.161477E-03
      0.370000          0.163688E-03
      0.375000          0.165399E-03
      0.380000          0.166396E-03
      0.385000          0.166518E-03
      0.390000          0.165663E-03
      0.395000          0.163800E-03
      0.400000          0.160965E-03
      0.405000          0.157257E-03
      0.410000          0.152825E-03
      0.415000          0.147853E-03
      0.420000          0.142546E-03
      0.425000          0.137113E-03
      0.430000          0.131748E-03
      0.435000          0.126618E-03
      0.440000          0.121854E-03
      0.445000          0.117547E-03
      0.450000          0.113739E-03
      0.455000          0.110436E-03
      0.460000          0.107603E-03
      0.465000          0.105181E-03
      0.470000          0.103090E-03
      0.475000          0.101244E-03
      0.480000          0.995578E-04
      0.485000          0.979550E-04
      0.490000          0.963752E-04
      0.495000          0.947768E-04
      0.500000          0.931381E-04
