 I_abs(s)[cm^-1]/c[mg/ml]
       0.00000          0.145427E-01
      0.500000E-02      0.144822E-01
      0.100000E-01      0.143021E-01
      0.150000E-01      0.140069E-01
      0.200000E-01      0.136039E-01
      0.250000E-01      0.131029E-01
      0.300000E-01      0.125158E-01
      0.350000E-01      0.118561E-01
      0.400000E-01      0.111388E-01
      0.450000E-01      0.103791E-01
      0.500000E-01      0.959270E-02
      0.550000E-01      0.879469E-02
      0.600000E-01      0.799939E-02
      0.650000E-01      0.721986E-02
      0.700000E-01      0.646758E-02
      0.750000E-01      0.575222E-02
      0.800000E-01      0.508150E-02
      0.850000E-01      0.446111E-02
      0.900000E-01      0.389480E-02
      0.950000E-01      0.338441E-02
      0.100000          0.293010E-02
      0.105000          0.253056E-02
      0.110000          0.218323E-02
      0.115000          0.188459E-02
      0.120000          0.163045E-02
      0.125000          0.141620E-02
      0.130000          0.123703E-02
      0.135000          0.108814E-02
      0.140000          0.964969E-03
      0.145000          0.863244E-03
      0.150000          0.779132E-03
      0.155000          0.709274E-03
      0.160000          0.650812E-03
      0.165000          0.601378E-03
      0.170000          0.559071E-03
      0.175000          0.522404E-03
      0.180000          0.490253E-03
      0.185000          0.461789E-03
      0.190000          0.436425E-03
      0.195000          0.413748E-03
      0.200000          0.393474E-03
      0.205000          0.375400E-03
      0.210000          0.359371E-03
      0.215000          0.345253E-03
      0.220000          0.332915E-03
      0.225000          0.322218E-03
      0.230000          0.313012E-03
      0.235000          0.305132E-03
      0.240000          0.298405E-03
      0.245000          0.292651E-03
      0.250000          0.287690E-03
      0.255000          0.283348E-03
      0.260000          0.279458E-03
      0.265000          0.275868E-03
      0.270000          0.272440E-03
      0.275000          0.269052E-03
      0.280000          0.265603E-03
      0.285000          0.262006E-03
      0.290000          0.258192E-03
      0.295000          0.254110E-03
      0.300000          0.249721E-03
      0.305000          0.245005E-03
      0.310000          0.239951E-03
      0.315000          0.234566E-03
      0.320000          0.228865E-03
      0.325000          0.222878E-03
      0.330000          0.216644E-03
      0.335000          0.210212E-03
      0.340000          0.203639E-03
      0.345000          0.196987E-03
      0.350000          0.190325E-03
      0.355000          0.183723E-03
      0.360000          0.177249E-03
      0.365000          0.170971E-03
      0.370000          0.164949E-03
      0.375000          0.159239E-03
      0.380000          0.153885E-03
      0.385000          0.148922E-03
      0.390000          0.144371E-03
      0.395000          0.140244E-03
      0.400000          0.136539E-03
      0.405000          0.133242E-03
      0.410000          0.130329E-03
      0.415000          0.127769E-03
      0.420000          0.125519E-03
      0.425000          0.123536E-03
      0.430000          0.121769E-03
      0.435000          0.120170E-03
      0.440000          0.118687E-03
      0.445000          0.117276E-03
      0.450000          0.115892E-03
      0.455000          0.114499E-03
      0.460000          0.113067E-03
      0.465000          0.111573E-03
      0.470000          0.110001E-03
      0.475000          0.108345E-03
      0.480000          0.106604E-03
      0.485000          0.104788E-03
      0.490000          0.102910E-03
      0.495000          0.100993E-03
      0.500000          0.990613E-04
