 I_abs(s)[cm^-1]/c[mg/ml]
       0.00000          0.147660E-01
      0.500000E-02      0.147015E-01
      0.100000E-01      0.145096E-01
      0.150000E-01      0.141953E-01
      0.200000E-01      0.137665E-01
      0.250000E-01      0.132339E-01
      0.300000E-01      0.126105E-01
      0.350000E-01      0.119112E-01
      0.400000E-01      0.111521E-01
      0.450000E-01      0.103501E-01
      0.500000E-01      0.952193E-02
      0.550000E-01      0.868423E-02
      0.600000E-01      0.785245E-02
      0.650000E-01      0.704068E-02
      0.700000E-01      0.626124E-02
      0.750000E-01      0.552442E-02
      0.800000E-01      0.483831E-02
      0.850000E-01      0.420876E-02
      0.900000E-01      0.363941E-02
      0.950000E-01      0.313181E-02
      0.100000          0.268564E-02
      0.105000          0.229892E-02
      0.110000          0.196835E-02
      0.115000          0.168959E-02
      0.120000          0.145759E-02
      0.125000          0.126687E-02
      0.130000          0.111184E-02
      0.135000          0.986968E-03
      0.140000          0.887042E-03
      0.145000          0.807278E-03
      0.150000          0.743436E-03
      0.155000          0.691868E-03
      0.160000          0.649540E-03
      0.165000          0.614007E-03
      0.170000          0.583374E-03
      0.175000          0.556225E-03
      0.180000          0.531552E-03
      0.185000          0.508677E-03
      0.190000          0.487168E-03
      0.195000          0.466776E-03
      0.200000          0.447367E-03
      0.205000          0.428877E-03
      0.210000          0.411272E-03
      0.215000          0.394525E-03
      0.220000          0.378600E-03
      0.225000          0.363449E-03
      0.230000          0.349008E-03
      0.235000          0.335210E-03
      0.240000          0.321984E-03
      0.245000          0.309269E-03
      0.250000          0.297016E-03
      0.255000          0.285198E-03
      0.260000          0.273807E-03
      0.265000          0.262856E-03
      0.270000          0.252376E-03
      0.275000          0.242410E-03
      0.280000          0.233010E-03
      0.285000          0.224227E-03
      0.290000          0.216106E-03
      0.295000          0.208683E-03
      0.300000          0.201978E-03
      0.305000          0.195992E-03
      0.310000          0.190711E-03
      0.315000          0.186099E-03
      0.320000          0.182105E-03
      0.325000          0.178664E-03
      0.330000          0.175703E-03
      0.335000          0.173139E-03
      0.340000          0.170889E-03
      0.345000          0.168871E-03
      0.350000          0.167006E-03
      0.355000          0.165223E-03
      0.360000          0.163460E-03
      0.365000          0.161664E-03
      0.370000          0.159792E-03
      0.375000          0.157814E-03
      0.380000          0.155707E-03
      0.385000          0.153460E-03
      0.390000          0.151071E-03
      0.395000          0.148543E-03
      0.400000          0.145888E-03
      0.405000          0.143123E-03
      0.410000          0.140269E-03
      0.415000          0.137351E-03
      0.420000          0.134396E-03
      0.425000          0.131433E-03
      0.430000          0.128492E-03
      0.435000          0.125603E-03
      0.440000          0.122794E-03
      0.445000          0.120092E-03
      0.450000          0.117520E-03
      0.455000          0.115100E-03
      0.460000          0.112849E-03
      0.465000          0.110780E-03
      0.470000          0.108901E-03
      0.475000          0.107215E-03
      0.480000          0.105722E-03
      0.485000          0.104416E-03
      0.490000          0.103287E-03
      0.495000          0.102321E-03
      0.500000          0.101503E-03
