 I_abs(s)[cm^-1]/c[mg/ml]
       0.00000          0.144159E-01
      0.500000E-02      0.143561E-01
      0.100000E-01      0.141781E-01
      0.150000E-01      0.138864E-01
      0.200000E-01      0.134881E-01
      0.250000E-01      0.129928E-01
      0.300000E-01      0.124123E-01
      0.350000E-01      0.117599E-01
      0.400000E-01      0.110500E-01
      0.450000E-01      0.102979E-01
      0.500000E-01      0.951887E-02
      0.550000E-01      0.872768E-02
      0.600000E-01      0.793841E-02
      0.650000E-01      0.716388E-02
      0.700000E-01      0.641536E-02
      0.750000E-01      0.570237E-02
      0.800000E-01      0.503253E-02
      0.850000E-01      0.441153E-02
      0.900000E-01      0.384315E-02
      0.950000E-01      0.332934E-02
      0.100000          0.287047E-02
      0.105000          0.246545E-02
      0.110000          0.211205E-02
      0.115000          0.180711E-02
      0.120000          0.154681E-02
      0.125000          0.132691E-02
      0.130000          0.114300E-02
      0.135000          0.990647E-03
      0.140000          0.865570E-03
      0.145000          0.763756E-03
      0.150000          0.681540E-03
      0.155000          0.615647E-03
      0.160000          0.563209E-03
      0.165000          0.521762E-03
      0.170000          0.489215E-03
      0.175000          0.463816E-03
      0.180000          0.444106E-03
      0.185000          0.428877E-03
      0.190000          0.417122E-03
      0.195000          0.408004E-03
      0.200000          0.400817E-03
      0.205000          0.394966E-03
      0.210000          0.389945E-03
      0.215000          0.385329E-03
      0.220000          0.380759E-03
      0.225000          0.375947E-03
      0.230000          0.370663E-03
      0.235000          0.364743E-03
      0.240000          0.358081E-03
      0.245000          0.350623E-03
      0.250000          0.342370E-03
      0.255000          0.333364E-03
      0.260000          0.323682E-03
      0.265000          0.313433E-03
      0.270000          0.302739E-03
      0.275000          0.291737E-03
      0.280000          0.280566E-03
      0.285000          0.269360E-03
      0.290000          0.258246E-03
      0.295000          0.247339E-03
      0.300000          0.236740E-03
      0.305000          0.226535E-03
      0.310000          0.216795E-03
      0.315000          0.207580E-03
      0.320000          0.198934E-03
      0.325000          0.190892E-03
      0.330000          0.183477E-03
      0.335000          0.176706E-03
      0.340000          0.170584E-03
      0.345000          0.165106E-03
      0.350000          0.160263E-03
      0.355000          0.156031E-03
      0.360000          0.152380E-03
      0.365000          0.149270E-03
      0.370000          0.146652E-03
      0.375000          0.144468E-03
      0.380000          0.142655E-03
      0.385000          0.141145E-03
      0.390000          0.139866E-03
      0.395000          0.138749E-03
      0.400000          0.137726E-03
      0.405000          0.136733E-03
      0.410000          0.135717E-03
      0.415000          0.134632E-03
      0.420000          0.133445E-03
      0.425000          0.132130E-03
      0.430000          0.130678E-03
      0.435000          0.129087E-03
      0.440000          0.127364E-03
      0.445000          0.125525E-03
      0.450000          0.123589E-03
      0.455000          0.121581E-03
      0.460000          0.119522E-03
      0.465000          0.117437E-03
      0.470000          0.115343E-03
      0.475000          0.113254E-03
      0.480000          0.111182E-03
      0.485000          0.109129E-03
      0.490000          0.107097E-03
      0.495000          0.105080E-03
      0.500000          0.103073E-03
