 I_abs(s)[cm^-1]/c[mg/ml]
       0.00000          0.141013E-01
      0.500000E-02      0.140113E-01
      0.100000E-01      0.137447E-01
      0.150000E-01      0.133116E-01
      0.200000E-01      0.127281E-01
      0.250000E-01      0.120156E-01
      0.300000E-01      0.111993E-01
      0.350000E-01      0.103072E-01
      0.400000E-01      0.936813E-02
      0.450000E-01      0.841092E-02
      0.500000E-01      0.746251E-02
      0.550000E-01      0.654700E-02
      0.600000E-01      0.568465E-02
      0.650000E-01      0.489126E-02
      0.700000E-01      0.417783E-02
      0.750000E-01      0.355057E-02
      0.800000E-01      0.301117E-02
      0.850000E-01      0.255732E-02
      0.900000E-01      0.218343E-02
      0.950000E-01      0.188143E-02
      0.100000          0.164168E-02
      0.105000          0.145381E-02
      0.110000          0.130746E-02
      0.115000          0.119296E-02
      0.120000          0.110180E-02
      0.125000          0.102693E-02
      0.130000          0.962921E-03
      0.135000          0.905943E-03
      0.140000          0.853606E-03
      0.145000          0.804732E-03
      0.150000          0.759049E-03
      0.155000          0.716871E-03
      0.160000          0.678800E-03
      0.165000          0.645452E-03
      0.170000          0.617266E-03
      0.175000          0.594364E-03
      0.180000          0.576499E-03
      0.185000          0.563064E-03
      0.190000          0.553154E-03
      0.195000          0.545668E-03
      0.200000          0.539434E-03
      0.205000          0.533327E-03
      0.210000          0.526380E-03
      0.215000          0.517866E-03
      0.220000          0.507350E-03
      0.225000          0.494700E-03
      0.230000          0.480068E-03
      0.235000          0.463840E-03
      0.240000          0.446568E-03
      0.245000          0.428891E-03
      0.250000          0.411451E-03
      0.255000          0.394823E-03
      0.260000          0.379459E-03
      0.265000          0.365648E-03
      0.270000          0.353502E-03
      0.275000          0.342960E-03
      0.280000          0.333813E-03
      0.285000          0.325739E-03
      0.290000          0.318351E-03
      0.295000          0.311243E-03
      0.300000          0.304035E-03
      0.305000          0.296410E-03
      0.310000          0.288144E-03
      0.315000          0.279116E-03
      0.320000          0.269317E-03
      0.325000          0.258835E-03
      0.330000          0.247845E-03
      0.335000          0.236583E-03
      0.340000          0.225320E-03
      0.345000          0.214335E-03
      0.350000          0.203895E-03
      0.355000          0.194234E-03
      0.360000          0.185538E-03
      0.365000          0.177939E-03
      0.370000          0.171509E-03
      0.375000          0.166267E-03
      0.380000          0.162179E-03
      0.385000          0.159170E-03
      0.390000          0.157130E-03
      0.395000          0.155926E-03
      0.400000          0.155405E-03
      0.405000          0.155407E-03
      0.410000          0.155768E-03
      0.415000          0.156323E-03
      0.420000          0.156915E-03
      0.425000          0.157393E-03
      0.430000          0.157622E-03
      0.435000          0.157479E-03
      0.440000          0.156863E-03
      0.445000          0.155698E-03
      0.450000          0.153931E-03
      0.455000          0.151542E-03
      0.460000          0.148543E-03
      0.465000          0.144976E-03
      0.470000          0.140916E-03
      0.475000          0.136463E-03
      0.480000          0.131742E-03
      0.485000          0.126889E-03
      0.490000          0.122049E-03
      0.495000          0.117364E-03
      0.500000          0.112964E-03
