 I_abs(s)[cm^-1]/c[mg/ml]
       0.00000          0.144001E-01
      0.500000E-02      0.143289E-01
      0.100000E-01      0.141177E-01
      0.150000E-01      0.137730E-01
      0.200000E-01      0.133053E-01
      0.250000E-01      0.127288E-01
      0.300000E-01      0.120603E-01
      0.350000E-01      0.113188E-01
      0.400000E-01      0.105243E-01
      0.450000E-01      0.969717E-02
      0.500000E-01      0.885718E-02
      0.550000E-01      0.802275E-02
      0.600000E-01      0.721031E-02
      0.650000E-01      0.643385E-02
      0.700000E-01      0.570453E-02
      0.750000E-01      0.503059E-02
      0.800000E-01      0.441732E-02
      0.850000E-01      0.386724E-02
      0.900000E-01      0.338039E-02
      0.950000E-01      0.295468E-02
      0.100000          0.258637E-02
      0.105000          0.227051E-02
      0.110000          0.200138E-02
      0.115000          0.177292E-02
      0.120000          0.157913E-02
      0.125000          0.141429E-02
      0.130000          0.127324E-02
      0.135000          0.115149E-02
      0.140000          0.104528E-02
      0.145000          0.951597E-03
      0.150000          0.868106E-03
      0.155000          0.793086E-03
      0.160000          0.725306E-03
      0.165000          0.663919E-03
      0.170000          0.608349E-03
      0.175000          0.558191E-03
      0.180000          0.513131E-03
      0.185000          0.472889E-03
      0.190000          0.437171E-03
      0.195000          0.405660E-03
      0.200000          0.378000E-03
      0.205000          0.353811E-03
      0.210000          0.332700E-03
      0.215000          0.314275E-03
      0.220000          0.298167E-03
      0.225000          0.284040E-03
      0.230000          0.271600E-03
      0.235000          0.260601E-03
      0.240000          0.250845E-03
      0.245000          0.242178E-03
      0.250000          0.234478E-03
      0.255000          0.227653E-03
      0.260000          0.221629E-03
      0.265000          0.216340E-03
      0.270000          0.211722E-03
      0.275000          0.207710E-03
      0.280000          0.204232E-03
      0.285000          0.201210E-03
      0.290000          0.198558E-03
      0.295000          0.196188E-03
      0.300000          0.194010E-03
      0.305000          0.191937E-03
      0.310000          0.189886E-03
      0.315000          0.187788E-03
      0.320000          0.185582E-03
      0.325000          0.183227E-03
      0.330000          0.180698E-03
      0.335000          0.177986E-03
      0.340000          0.175104E-03
      0.345000          0.172079E-03
      0.350000          0.168955E-03
      0.355000          0.165786E-03
      0.360000          0.162636E-03
      0.365000          0.159569E-03
      0.370000          0.156649E-03
      0.375000          0.153934E-03
      0.380000          0.151469E-03
      0.385000          0.149283E-03
      0.390000          0.147388E-03
      0.395000          0.145777E-03
      0.400000          0.144421E-03
      0.405000          0.143275E-03
      0.410000          0.142280E-03
      0.415000          0.141365E-03
      0.420000          0.140457E-03
      0.425000          0.139482E-03
      0.430000          0.138374E-03
      0.435000          0.137082E-03
      0.440000          0.135567E-03
      0.445000          0.133814E-03
      0.450000          0.131826E-03
      0.455000          0.129625E-03
      0.460000          0.127254E-03
      0.465000          0.124764E-03
      0.470000          0.122219E-03
      0.475000          0.119682E-03
      0.480000          0.117213E-03
      0.485000          0.114864E-03
      0.490000          0.112673E-03
      0.495000          0.110661E-03
      0.500000          0.108831E-03
