 I_abs(s)[cm^-1]/c[mg/ml]
       0.00000          0.140778E-01
      0.500000E-02      0.140235E-01
      0.100000E-01      0.138619E-01
      0.150000E-01      0.135969E-01
      0.200000E-01      0.132352E-01
      0.250000E-01      0.127853E-01
      0.300000E-01      0.122579E-01
      0.350000E-01      0.116650E-01
      0.400000E-01      0.110198E-01
      0.450000E-01      0.103357E-01
      0.500000E-01      0.962648E-02
      0.550000E-01      0.890545E-02
      0.600000E-01      0.818508E-02
      0.650000E-01      0.747673E-02
      0.700000E-01      0.679038E-02
      0.750000E-01      0.613439E-02
      0.800000E-01      0.551543E-02
      0.850000E-01      0.493843E-02
      0.900000E-01      0.440665E-02
      0.950000E-01      0.392178E-02
      0.100000          0.348409E-02
      0.105000          0.309261E-02
      0.110000          0.274542E-02
      0.115000          0.243979E-02
      0.120000          0.217248E-02
      0.125000          0.193991E-02
      0.130000          0.173833E-02
      0.135000          0.156404E-02
      0.140000          0.141346E-02
      0.145000          0.128324E-02
      0.150000          0.117035E-02
      0.155000          0.107207E-02
      0.160000          0.986037E-03
      0.165000          0.910219E-03
      0.170000          0.842906E-03
      0.175000          0.782672E-03
      0.180000          0.728345E-03
      0.185000          0.678971E-03
      0.190000          0.633777E-03
      0.195000          0.592146E-03
      0.200000          0.553584E-03
      0.205000          0.517703E-03
      0.210000          0.484201E-03
      0.215000          0.452844E-03
      0.220000          0.423463E-03
      0.225000          0.395934E-03
      0.230000          0.370176E-03
      0.235000          0.346138E-03
      0.240000          0.323793E-03
      0.245000          0.303133E-03
      0.250000          0.284153E-03
      0.255000          0.266855E-03
      0.260000          0.251231E-03
      0.265000          0.237265E-03
      0.270000          0.224927E-03
      0.275000          0.214169E-03
      0.280000          0.204927E-03
      0.285000          0.197118E-03
      0.290000          0.190647E-03
      0.295000          0.185405E-03
      0.300000          0.181274E-03
      0.305000          0.178132E-03
      0.310000          0.175855E-03
      0.315000          0.174319E-03
      0.320000          0.173408E-03
      0.325000          0.173007E-03
      0.330000          0.173014E-03
      0.335000          0.173331E-03
      0.340000          0.173867E-03
      0.345000          0.174541E-03
      0.350000          0.175278E-03
      0.355000          0.176009E-03
      0.360000          0.176669E-03
      0.365000          0.177202E-03
      0.370000          0.177555E-03
      0.375000          0.177685E-03
      0.380000          0.177551E-03
      0.385000          0.177126E-03
      0.390000          0.176386E-03
      0.395000          0.175321E-03
      0.400000          0.173928E-03
      0.405000          0.172214E-03
      0.410000          0.170197E-03
      0.415000          0.167899E-03
      0.420000          0.165353E-03
      0.425000          0.162593E-03
      0.430000          0.159658E-03
      0.435000          0.156586E-03
      0.440000          0.153413E-03
      0.445000          0.150174E-03
      0.450000          0.146898E-03
      0.455000          0.143606E-03
      0.460000          0.140318E-03
      0.465000          0.137045E-03
      0.470000          0.133794E-03
      0.475000          0.130568E-03
      0.480000          0.127368E-03
      0.485000          0.124195E-03
      0.490000          0.121049E-03
      0.495000          0.117935E-03
      0.500000          0.114858E-03
