 I_abs(s)[cm^-1]/c[mg/ml]
       0.00000          0.137979E-01
      0.500000E-02      0.137335E-01
      0.100000E-01      0.135422E-01
      0.150000E-01      0.132296E-01
      0.200000E-01      0.128047E-01
      0.250000E-01      0.122793E-01
      0.300000E-01      0.116680E-01
      0.350000E-01      0.109872E-01
      0.400000E-01      0.102545E-01
      0.450000E-01      0.948789E-02
      0.500000E-01      0.870541E-02
      0.550000E-01      0.792407E-02
      0.600000E-01      0.715949E-02
      0.650000E-01      0.642537E-02
      0.700000E-01      0.573315E-02
      0.750000E-01      0.509174E-02
      0.800000E-01      0.450743E-02
      0.850000E-01      0.398392E-02
      0.900000E-01      0.352246E-02
      0.950000E-01      0.312208E-02
      0.100000          0.277991E-02
      0.105000          0.249155E-02
      0.110000          0.225150E-02
      0.115000          0.205350E-02
      0.120000          0.189098E-02
      0.125000          0.175737E-02
      0.130000          0.164642E-02
      0.135000          0.155241E-02
      0.140000          0.147038E-02
      0.145000          0.139618E-02
      0.150000          0.132653E-02
      0.155000          0.125904E-02
      0.160000          0.119211E-02
      0.165000          0.112484E-02
      0.170000          0.105697E-02
      0.175000          0.988658E-03
      0.180000          0.920424E-03
      0.185000          0.852986E-03
      0.190000          0.787155E-03
      0.195000          0.723740E-03
      0.200000          0.663476E-03
      0.205000          0.606966E-03
      0.210000          0.554654E-03
      0.215000          0.506811E-03
      0.220000          0.463537E-03
      0.225000          0.424781E-03
      0.230000          0.390359E-03
      0.235000          0.359989E-03
      0.240000          0.333321E-03
      0.245000          0.309964E-03
      0.250000          0.289519E-03
      0.255000          0.271598E-03
      0.260000          0.255841E-03
      0.265000          0.241933E-03
      0.270000          0.229605E-03
      0.275000          0.218638E-03
      0.280000          0.208862E-03
      0.285000          0.200150E-03
      0.290000          0.192411E-03
      0.295000          0.185581E-03
      0.300000          0.179616E-03
      0.305000          0.174479E-03
      0.310000          0.170139E-03
      0.315000          0.166561E-03
      0.320000          0.163699E-03
      0.325000          0.161500E-03
      0.330000          0.159895E-03
      0.335000          0.158804E-03
      0.340000          0.158135E-03
      0.345000          0.157788E-03
      0.350000          0.157658E-03
      0.355000          0.157640E-03
      0.360000          0.157632E-03
      0.365000          0.157540E-03
      0.370000          0.157279E-03
      0.375000          0.156781E-03
      0.380000          0.155995E-03
      0.385000          0.154887E-03
      0.390000          0.153443E-03
      0.395000          0.151668E-03
      0.400000          0.149583E-03
      0.405000          0.147224E-03
      0.410000          0.144639E-03
      0.415000          0.141885E-03
      0.420000          0.139023E-03
      0.425000          0.136116E-03
      0.430000          0.133226E-03
      0.435000          0.130408E-03
      0.440000          0.127711E-03
      0.445000          0.125174E-03
      0.450000          0.122827E-03
      0.455000          0.120687E-03
      0.460000          0.118761E-03
      0.465000          0.117046E-03
      0.470000          0.115531E-03
      0.475000          0.114195E-03
      0.480000          0.113015E-03
      0.485000          0.111962E-03
      0.490000          0.111006E-03
      0.495000          0.110118E-03
      0.500000          0.109270E-03
