 I_abs(s)[cm^-1]/c[mg/ml]
       0.00000          0.132539E-01
      0.500000E-02      0.131759E-01
      0.100000E-01      0.129450E-01
      0.150000E-01      0.125701E-01
      0.200000E-01      0.120657E-01
      0.250000E-01      0.114507E-01
      0.300000E-01      0.107475E-01
      0.350000E-01      0.998071E-02
      0.400000E-01      0.917559E-02
      0.450000E-01      0.835700E-02
      0.500000E-01      0.754802E-02
      0.550000E-01      0.676892E-02
      0.600000E-01      0.603640E-02
      0.650000E-01      0.536310E-02
      0.700000E-01      0.475734E-02
      0.750000E-01      0.422325E-02
      0.800000E-01      0.376108E-02
      0.850000E-01      0.336778E-02
      0.900000E-01      0.303763E-02
      0.950000E-01      0.276309E-02
      0.100000          0.253553E-02
      0.105000          0.234600E-02
      0.110000          0.218585E-02
      0.115000          0.204726E-02
      0.120000          0.192360E-02
      0.125000          0.180960E-02
      0.130000          0.170147E-02
      0.135000          0.159675E-02
      0.140000          0.149420E-02
      0.145000          0.139353E-02
      0.150000          0.129513E-02
      0.155000          0.119981E-02
      0.160000          0.110856E-02
      0.165000          0.102233E-02
      0.170000          0.941905E-03
      0.175000          0.867785E-03
      0.180000          0.800186E-03
      0.185000          0.739033E-03
      0.190000          0.684010E-03
      0.195000          0.634628E-03
      0.200000          0.590302E-03
      0.205000          0.550417E-03
      0.210000          0.514392E-03
      0.215000          0.481721E-03
      0.220000          0.451990E-03
      0.225000          0.424886E-03
      0.230000          0.400182E-03
      0.235000          0.377714E-03
      0.240000          0.357359E-03
      0.245000          0.339004E-03
      0.250000          0.322526E-03
      0.255000          0.307776E-03
      0.260000          0.294576E-03
      0.265000          0.282720E-03
      0.270000          0.271982E-03
      0.275000          0.262132E-03
      0.280000          0.252955E-03
      0.285000          0.244259E-03
      0.290000          0.235897E-03
      0.295000          0.227768E-03
      0.300000          0.219823E-03
      0.305000          0.212063E-03
      0.310000          0.204529E-03
      0.315000          0.197291E-03
      0.320000          0.190438E-03
      0.325000          0.184059E-03
      0.330000          0.178237E-03
      0.335000          0.173032E-03
      0.340000          0.168480E-03
      0.345000          0.164584E-03
      0.350000          0.161317E-03
      0.355000          0.158623E-03
      0.360000          0.156423E-03
      0.365000          0.154621E-03
      0.370000          0.153111E-03
      0.375000          0.151786E-03
      0.380000          0.150542E-03
      0.385000          0.149288E-03
      0.390000          0.147946E-03
      0.395000          0.146460E-03
      0.400000          0.144793E-03
      0.405000          0.142931E-03
      0.410000          0.140880E-03
      0.415000          0.138666E-03
      0.420000          0.136328E-03
      0.425000          0.133922E-03
      0.430000          0.131508E-03
      0.435000          0.129152E-03
      0.440000          0.126914E-03
      0.445000          0.124851E-03
      0.450000          0.123006E-03
      0.455000          0.121405E-03
      0.460000          0.120058E-03
      0.465000          0.118954E-03
      0.470000          0.118063E-03
      0.475000          0.117335E-03
      0.480000          0.116708E-03
      0.485000          0.116107E-03
      0.490000          0.115456E-03
      0.495000          0.114678E-03
      0.500000          0.113706E-03
