 I_abs(s)[cm^-1]/c[mg/ml]
       0.00000          0.141977E-01
      0.500000E-02      0.141373E-01
      0.100000E-01      0.139575E-01
      0.150000E-01      0.136633E-01
      0.200000E-01      0.132624E-01
      0.250000E-01      0.127653E-01
      0.300000E-01      0.121846E-01
      0.350000E-01      0.115346E-01
      0.400000E-01      0.108307E-01
      0.450000E-01      0.100886E-01
      0.500000E-01      0.932414E-02
      0.550000E-01      0.855222E-02
      0.600000E-01      0.778680E-02
      0.650000E-01      0.704028E-02
      0.700000E-01      0.632327E-02
      0.750000E-01      0.564444E-02
      0.800000E-01      0.501041E-02
      0.850000E-01      0.442580E-02
      0.900000E-01      0.389334E-02
      0.950000E-01      0.341403E-02
      0.100000          0.298737E-02
      0.105000          0.261162E-02
      0.110000          0.228403E-02
      0.115000          0.200114E-02
      0.120000          0.175900E-02
      0.125000          0.155340E-02
      0.130000          0.138004E-02
      0.135000          0.123471E-02
      0.140000          0.111339E-02
      0.145000          0.101233E-02
      0.150000          0.928153E-03
      0.155000          0.857815E-03
      0.160000          0.798676E-03
      0.165000          0.748466E-03
      0.170000          0.705272E-03
      0.175000          0.667516E-03
      0.180000          0.633917E-03
      0.185000          0.603458E-03
      0.190000          0.575351E-03
      0.195000          0.549000E-03
      0.200000          0.523967E-03
      0.205000          0.499944E-03
      0.210000          0.476722E-03
      0.215000          0.454170E-03
      0.220000          0.432215E-03
      0.225000          0.410827E-03
      0.230000          0.390009E-03
      0.235000          0.369786E-03
      0.240000          0.350203E-03
      0.245000          0.331317E-03
      0.250000          0.313196E-03
      0.255000          0.295914E-03
      0.260000          0.279547E-03
      0.265000          0.264173E-03
      0.270000          0.249859E-03
      0.275000          0.236661E-03
      0.280000          0.224615E-03
      0.285000          0.213733E-03
      0.290000          0.204001E-03
      0.295000          0.195372E-03
      0.300000          0.187770E-03
      0.305000          0.181094E-03
      0.310000          0.175220E-03
      0.315000          0.170011E-03
      0.320000          0.165323E-03
      0.325000          0.161020E-03
      0.330000          0.156976E-03
      0.335000          0.153089E-03
      0.340000          0.149284E-03
      0.345000          0.145515E-03
      0.350000          0.141768E-03
      0.355000          0.138056E-03
      0.360000          0.134418E-03
      0.365000          0.130904E-03
      0.370000          0.127577E-03
      0.375000          0.124497E-03
      0.380000          0.121717E-03
      0.385000          0.119278E-03
      0.390000          0.117201E-03
      0.395000          0.115489E-03
      0.400000          0.114124E-03
      0.405000          0.113073E-03
      0.410000          0.112287E-03
      0.415000          0.111711E-03
      0.420000          0.111286E-03
      0.425000          0.110956E-03
      0.430000          0.110668E-03
      0.435000          0.110383E-03
      0.440000          0.110068E-03
      0.445000          0.109703E-03
      0.450000          0.109280E-03
      0.455000          0.108796E-03
      0.460000          0.108255E-03
      0.465000          0.107665E-03
      0.470000          0.107033E-03
      0.475000          0.106367E-03
      0.480000          0.105668E-03
      0.485000          0.104936E-03
      0.490000          0.104169E-03
      0.495000          0.103360E-03
      0.500000          0.102500E-03
