 I_abs(s)[cm^-1]/c[mg/ml]
       0.00000          0.147037E-01
      0.500000E-02      0.146556E-01
      0.100000E-01      0.145123E-01
      0.150000E-01      0.142766E-01
      0.200000E-01      0.139530E-01
      0.250000E-01      0.135475E-01
      0.300000E-01      0.130678E-01
      0.350000E-01      0.125226E-01
      0.400000E-01      0.119215E-01
      0.450000E-01      0.112750E-01
      0.500000E-01      0.105936E-01
      0.550000E-01      0.988839E-02
      0.600000E-01      0.916985E-02
      0.650000E-01      0.844822E-02
      0.700000E-01      0.773307E-02
      0.750000E-01      0.703308E-02
      0.800000E-01      0.635597E-02
      0.850000E-01      0.570831E-02
      0.900000E-01      0.509550E-02
      0.950000E-01      0.452175E-02
      0.100000          0.399007E-02
      0.105000          0.350232E-02
      0.110000          0.305930E-02
      0.115000          0.266085E-02
      0.120000          0.230597E-02
      0.125000          0.199294E-02
      0.130000          0.171947E-02
      0.135000          0.148283E-02
      0.140000          0.127999E-02
      0.145000          0.110773E-02
      0.150000          0.962733E-03
      0.155000          0.841735E-03
      0.160000          0.741551E-03
      0.165000          0.659163E-03
      0.170000          0.591762E-03
      0.175000          0.536788E-03
      0.180000          0.491944E-03
      0.185000          0.455210E-03
      0.190000          0.424839E-03
      0.195000          0.399354E-03
      0.200000          0.377529E-03
      0.205000          0.358374E-03
      0.210000          0.341112E-03
      0.215000          0.325158E-03
      0.220000          0.310090E-03
      0.225000          0.295632E-03
      0.230000          0.281625E-03
      0.235000          0.268006E-03
      0.240000          0.254786E-03
      0.245000          0.242033E-03
      0.250000          0.229849E-03
      0.255000          0.218356E-03
      0.260000          0.207681E-03
      0.265000          0.197945E-03
      0.270000          0.189250E-03
      0.275000          0.181671E-03
      0.280000          0.175253E-03
      0.285000          0.170005E-03
      0.290000          0.165901E-03
      0.295000          0.162877E-03
      0.300000          0.160841E-03
      0.305000          0.159668E-03
      0.310000          0.159216E-03
      0.315000          0.159325E-03
      0.320000          0.159830E-03
      0.325000          0.160562E-03
      0.330000          0.161364E-03
      0.335000          0.162089E-03
      0.340000          0.162611E-03
      0.345000          0.162826E-03
      0.350000          0.162658E-03
      0.355000          0.162058E-03
      0.360000          0.161002E-03
      0.365000          0.159496E-03
      0.370000          0.157566E-03
      0.375000          0.155258E-03
      0.380000          0.152632E-03
      0.385000          0.149760E-03
      0.390000          0.146717E-03
      0.395000          0.143578E-03
      0.400000          0.140414E-03
      0.405000          0.137289E-03
      0.410000          0.134252E-03
      0.415000          0.131344E-03
      0.420000          0.128587E-03
      0.425000          0.125991E-03
      0.430000          0.123553E-03
      0.435000          0.121255E-03
      0.440000          0.119073E-03
      0.445000          0.116971E-03
      0.450000          0.114914E-03
      0.455000          0.112861E-03
      0.460000          0.110776E-03
      0.465000          0.108626E-03
      0.470000          0.106384E-03
      0.475000          0.104032E-03
      0.480000          0.101563E-03
      0.485000          0.989768E-04
      0.490000          0.962867E-04
      0.495000          0.935141E-04
      0.500000          0.906892E-04
