 I_abs(s)[cm^-1]/c[mg/ml]
       0.00000          0.131096E-01
      0.500000E-02      0.130019E-01
      0.100000E-01      0.126856E-01
      0.150000E-01      0.121798E-01
      0.200000E-01      0.115146E-01
      0.250000E-01      0.107275E-01
      0.300000E-01      0.986023E-02
      0.350000E-01      0.895461E-02
      0.400000E-01      0.804952E-02
      0.450000E-01      0.717800E-02
      0.500000E-01      0.636554E-02
      0.550000E-01      0.562939E-02
      0.600000E-01      0.497875E-02
      0.650000E-01      0.441576E-02
      0.700000E-01      0.393701E-02
      0.750000E-01      0.353513E-02
      0.800000E-01      0.320048E-02
      0.850000E-01      0.292244E-02
      0.900000E-01      0.269050E-02
      0.950000E-01      0.249492E-02
      0.100000          0.232705E-02
      0.105000          0.217951E-02
      0.110000          0.204623E-02
      0.115000          0.192234E-02
      0.120000          0.180416E-02
      0.125000          0.168920E-02
      0.130000          0.157601E-02
      0.135000          0.146417E-02
      0.140000          0.135413E-02
      0.145000          0.124697E-02
      0.150000          0.114417E-02
      0.155000          0.104726E-02
      0.160000          0.957622E-03
      0.165000          0.876192E-03
      0.170000          0.803369E-03
      0.175000          0.738979E-03
      0.180000          0.682344E-03
      0.185000          0.632436E-03
      0.190000          0.588060E-03
      0.195000          0.548042E-03
      0.200000          0.511378E-03
      0.205000          0.477332E-03
      0.210000          0.445455E-03
      0.215000          0.415560E-03
      0.220000          0.387642E-03
      0.225000          0.361797E-03
      0.230000          0.338125E-03
      0.235000          0.316677E-03
      0.240000          0.297415E-03
      0.245000          0.280214E-03
      0.250000          0.264884E-03
      0.255000          0.251201E-03
      0.260000          0.238951E-03
      0.265000          0.227950E-03
      0.270000          0.218069E-03
      0.275000          0.209227E-03
      0.280000          0.201385E-03
      0.285000          0.194526E-03
      0.290000          0.188639E-03
      0.295000          0.183698E-03
      0.300000          0.179656E-03
      0.305000          0.176436E-03
      0.310000          0.173937E-03
      0.315000          0.172038E-03
      0.320000          0.170608E-03
      0.325000          0.169512E-03
      0.330000          0.168624E-03
      0.335000          0.167827E-03
      0.340000          0.167021E-03
      0.345000          0.166129E-03
      0.350000          0.165092E-03
      0.355000          0.163873E-03
      0.360000          0.162457E-03
      0.365000          0.160845E-03
      0.370000          0.159052E-03
      0.375000          0.157106E-03
      0.380000          0.155042E-03
      0.385000          0.152894E-03
      0.390000          0.150701E-03
      0.395000          0.148496E-03
      0.400000          0.146311E-03
      0.405000          0.144169E-03
      0.410000          0.142093E-03
      0.415000          0.140094E-03
      0.420000          0.138178E-03
      0.425000          0.136341E-03
      0.430000          0.134567E-03
      0.435000          0.132827E-03
      0.440000          0.131081E-03
      0.445000          0.129274E-03
      0.450000          0.127347E-03
      0.455000          0.125238E-03
      0.460000          0.122892E-03
      0.465000          0.120268E-03
      0.470000          0.117348E-03
      0.475000          0.114144E-03
      0.480000          0.110696E-03
      0.485000          0.107078E-03
      0.490000          0.103383E-03
      0.495000          0.997220E-04
      0.500000          0.962073E-04
