 I_abs(s)[cm^-1]/c[mg/ml]
       0.00000          0.142163E-01
      0.500000E-02      0.141626E-01
      0.100000E-01      0.140026E-01
      0.150000E-01      0.137398E-01
      0.200000E-01      0.133802E-01
      0.250000E-01      0.129316E-01
      0.300000E-01      0.124036E-01
      0.350000E-01      0.118072E-01
      0.400000E-01      0.111547E-01
      0.450000E-01      0.104589E-01
      0.500000E-01      0.973276E-02
      0.550000E-01      0.898932E-02
      0.600000E-01      0.824105E-02
      0.650000E-01      0.749962E-02
      0.700000E-01      0.677560E-02
      0.750000E-01      0.607826E-02
      0.800000E-01      0.541541E-02
      0.850000E-01      0.479330E-02
      0.900000E-01      0.421661E-02
      0.950000E-01      0.368846E-02
      0.100000          0.321051E-02
      0.105000          0.278308E-02
      0.110000          0.240530E-02
      0.115000          0.207534E-02
      0.120000          0.179051E-02
      0.125000          0.154756E-02
      0.130000          0.134280E-02
      0.135000          0.117231E-02
      0.140000          0.103208E-02
      0.145000          0.918136E-03
      0.150000          0.826683E-03
      0.155000          0.754153E-03
      0.160000          0.697275E-03
      0.165000          0.653109E-03
      0.170000          0.619061E-03
      0.175000          0.592880E-03
      0.180000          0.572645E-03
      0.185000          0.556743E-03
      0.190000          0.543838E-03
      0.195000          0.532842E-03
      0.200000          0.522883E-03
      0.205000          0.513275E-03
      0.210000          0.503490E-03
      0.215000          0.493137E-03
      0.220000          0.481937E-03
      0.225000          0.469710E-03
      0.230000          0.456359E-03
      0.235000          0.441857E-03
      0.240000          0.426239E-03
      0.245000          0.409593E-03
      0.250000          0.392046E-03
      0.255000          0.373763E-03
      0.260000          0.354937E-03
      0.265000          0.335777E-03
      0.270000          0.316504E-03
      0.275000          0.297344E-03
      0.280000          0.278516E-03
      0.285000          0.260231E-03
      0.290000          0.242682E-03
      0.295000          0.226042E-03
      0.300000          0.210458E-03
      0.305000          0.196050E-03
      0.310000          0.182910E-03
      0.315000          0.171098E-03
      0.320000          0.160648E-03
      0.325000          0.151562E-03
      0.330000          0.143820E-03
      0.335000          0.137375E-03
      0.340000          0.132161E-03
      0.345000          0.128093E-03
      0.350000          0.125070E-03
      0.355000          0.122982E-03
      0.360000          0.121705E-03
      0.365000          0.121113E-03
      0.370000          0.121077E-03
      0.375000          0.121467E-03
      0.380000          0.122157E-03
      0.385000          0.123026E-03
      0.390000          0.123963E-03
      0.395000          0.124867E-03
      0.400000          0.125649E-03
      0.405000          0.126235E-03
      0.410000          0.126567E-03
      0.415000          0.126601E-03
      0.420000          0.126312E-03
      0.425000          0.125688E-03
      0.430000          0.124734E-03
      0.435000          0.123467E-03
      0.440000          0.121917E-03
      0.445000          0.120122E-03
      0.450000          0.118128E-03
      0.455000          0.115986E-03
      0.460000          0.113748E-03
      0.465000          0.111467E-03
      0.470000          0.109193E-03
      0.475000          0.106972E-03
      0.480000          0.104845E-03
      0.485000          0.102844E-03
      0.490000          0.100996E-03
      0.495000          0.993181E-04
      0.500000          0.978205E-04
