 I_abs(s)[cm^-1]/c[mg/ml]
       0.00000          0.141302E-01
      0.500000E-02      0.140638E-01
      0.100000E-01      0.138666E-01
      0.150000E-01      0.135448E-01
      0.200000E-01      0.131085E-01
      0.250000E-01      0.125708E-01
      0.300000E-01      0.119476E-01
      0.350000E-01      0.112565E-01
      0.400000E-01      0.105162E-01
      0.450000E-01      0.974546E-02
      0.500000E-01      0.896245E-02
      0.550000E-01      0.818398E-02
      0.600000E-01      0.742491E-02
      0.650000E-01      0.669777E-02
      0.700000E-01      0.601246E-02
      0.750000E-01      0.537617E-02
      0.800000E-01      0.479344E-02
      0.850000E-01      0.426634E-02
      0.900000E-01      0.379478E-02
      0.950000E-01      0.337687E-02
      0.100000          0.300934E-02
      0.105000          0.268795E-02
      0.110000          0.240791E-02
      0.115000          0.216419E-02
      0.120000          0.195186E-02
      0.125000          0.176629E-02
      0.130000          0.160331E-02
      0.135000          0.145930E-02
      0.140000          0.133122E-02
      0.145000          0.121660E-02
      0.150000          0.111346E-02
      0.155000          0.102027E-02
      0.160000          0.935840E-03
      0.165000          0.859272E-03
      0.170000          0.789845E-03
      0.175000          0.726977E-03
      0.180000          0.670174E-03
      0.185000          0.618992E-03
      0.190000          0.573019E-03
      0.195000          0.531862E-03
      0.200000          0.495144E-03
      0.205000          0.462501E-03
      0.210000          0.433583E-03
      0.215000          0.408058E-03
      0.220000          0.385606E-03
      0.225000          0.365918E-03
      0.230000          0.348697E-03
      0.235000          0.333651E-03
      0.240000          0.320492E-03
      0.245000          0.308938E-03
      0.250000          0.298711E-03
      0.255000          0.289539E-03
      0.260000          0.281169E-03
      0.265000          0.273363E-03
      0.270000          0.265913E-03
      0.275000          0.258643E-03
      0.280000          0.251415E-03
      0.285000          0.244131E-03
      0.290000          0.236738E-03
      0.295000          0.229221E-03
      0.300000          0.221600E-03
      0.305000          0.213928E-03
      0.310000          0.206278E-03
      0.315000          0.198737E-03
      0.320000          0.191400E-03
      0.325000          0.184359E-03
      0.330000          0.177697E-03
      0.335000          0.171487E-03
      0.340000          0.165782E-03
      0.345000          0.160618E-03
      0.350000          0.156013E-03
      0.355000          0.151965E-03
      0.360000          0.148456E-03
      0.365000          0.145457E-03
      0.370000          0.142922E-03
      0.375000          0.140801E-03
      0.380000          0.139037E-03
      0.385000          0.137567E-03
      0.390000          0.136330E-03
      0.395000          0.135263E-03
      0.400000          0.134309E-03
      0.405000          0.133410E-03
      0.410000          0.132517E-03
      0.415000          0.131586E-03
      0.420000          0.130580E-03
      0.425000          0.129471E-03
      0.430000          0.128236E-03
      0.435000          0.126863E-03
      0.440000          0.125346E-03
      0.445000          0.123688E-03
      0.450000          0.121895E-03
      0.455000          0.119982E-03
      0.460000          0.117965E-03
      0.465000          0.115867E-03
      0.470000          0.113709E-03
      0.475000          0.111514E-03
      0.480000          0.109308E-03
      0.485000          0.107112E-03
      0.490000          0.104948E-03
      0.495000          0.102837E-03
      0.500000          0.100796E-03
