 I_abs(s)[cm^-1]/c[mg/ml]
       0.00000          0.144080E-01
      0.500000E-02      0.143450E-01
      0.100000E-01      0.141580E-01
      0.150000E-01      0.138527E-01
      0.200000E-01      0.134383E-01
      0.250000E-01      0.129271E-01
      0.300000E-01      0.123337E-01
      0.350000E-01      0.116743E-01
      0.400000E-01      0.109661E-01
      0.450000E-01      0.102264E-01
      0.500000E-01      0.947170E-02
      0.550000E-01      0.871741E-02
      0.600000E-01      0.797703E-02
      0.650000E-01      0.726191E-02
      0.700000E-01      0.658099E-02
      0.750000E-01      0.594081E-02
      0.800000E-01      0.534551E-02
      0.850000E-01      0.479712E-02
      0.900000E-01      0.429583E-02
      0.950000E-01      0.384034E-02
      0.100000          0.342830E-02
      0.105000          0.305666E-02
      0.110000          0.272203E-02
      0.115000          0.242097E-02
      0.120000          0.215023E-02
      0.125000          0.190690E-02
      0.130000          0.168844E-02
      0.135000          0.149276E-02
      0.140000          0.131811E-02
      0.145000          0.116304E-02
      0.150000          0.102628E-02
      0.155000          0.906664E-03
      0.160000          0.803006E-03
      0.165000          0.714059E-03
      0.170000          0.638469E-03
      0.175000          0.574770E-03
      0.180000          0.521407E-03
      0.185000          0.476781E-03
      0.190000          0.439310E-03
      0.195000          0.407499E-03
      0.200000          0.380002E-03
      0.205000          0.355679E-03
      0.210000          0.333631E-03
      0.215000          0.313218E-03
      0.220000          0.294055E-03
      0.225000          0.275987E-03
      0.230000          0.259044E-03
      0.235000          0.243394E-03
      0.240000          0.229280E-03
      0.245000          0.216961E-03
      0.250000          0.206666E-03
      0.255000          0.198548E-03
      0.260000          0.192657E-03
      0.265000          0.188931E-03
      0.270000          0.187190E-03
      0.275000          0.187160E-03
      0.280000          0.188488E-03
      0.285000          0.190777E-03
      0.290000          0.193616E-03
      0.295000          0.196612E-03
      0.300000          0.199415E-03
      0.305000          0.201736E-03
      0.310000          0.203364E-03
      0.315000          0.204164E-03
      0.320000          0.204078E-03
      0.325000          0.203112E-03
      0.330000          0.201325E-03
      0.335000          0.198811E-03
      0.340000          0.195685E-03
      0.345000          0.192067E-03
      0.350000          0.188072E-03
      0.355000          0.183803E-03
      0.360000          0.179343E-03
      0.365000          0.174758E-03
      0.370000          0.170097E-03
      0.375000          0.165398E-03
      0.380000          0.160692E-03
      0.385000          0.156006E-03
      0.390000          0.151371E-03
      0.395000          0.146820E-03
      0.400000          0.142393E-03
      0.405000          0.138132E-03
      0.410000          0.134084E-03
      0.415000          0.130291E-03
      0.420000          0.126792E-03
      0.425000          0.123617E-03
      0.430000          0.120783E-03
      0.435000          0.118295E-03
      0.440000          0.116143E-03
      0.445000          0.114303E-03
      0.450000          0.112741E-03
      0.455000          0.111413E-03
      0.460000          0.110271E-03
      0.465000          0.109267E-03
      0.470000          0.108352E-03
      0.475000          0.107487E-03
      0.480000          0.106636E-03
      0.485000          0.105775E-03
      0.490000          0.104887E-03
      0.495000          0.103963E-03
      0.500000          0.103003E-03
