 I_abs(s)[cm^-1]/c[mg/ml]
       0.00000          0.138753E-01
      0.500000E-02      0.138087E-01
      0.100000E-01      0.136108E-01
      0.150000E-01      0.132882E-01
      0.200000E-01      0.128510E-01
      0.250000E-01      0.123129E-01
      0.300000E-01      0.116900E-01
      0.350000E-01      0.110004E-01
      0.400000E-01      0.102630E-01
      0.450000E-01      0.949678E-02
      0.500000E-01      0.871991E-02
      0.550000E-01      0.794917E-02
      0.600000E-01      0.719923E-02
      0.650000E-01      0.648232E-02
      0.700000E-01      0.580799E-02
      0.750000E-01      0.518302E-02
      0.800000E-01      0.461158E-02
      0.850000E-01      0.409539E-02
      0.900000E-01      0.363410E-02
      0.950000E-01      0.322565E-02
      0.100000          0.286671E-02
      0.105000          0.255308E-02
      0.110000          0.228007E-02
      0.115000          0.204286E-02
      0.120000          0.183672E-02
      0.125000          0.165726E-02
      0.130000          0.150051E-02
      0.135000          0.136304E-02
      0.140000          0.124192E-02
      0.145000          0.113473E-02
      0.150000          0.103951E-02
      0.155000          0.954671E-03
      0.160000          0.878936E-03
      0.165000          0.811273E-03
      0.170000          0.750826E-03
      0.175000          0.696867E-03
      0.180000          0.648753E-03
      0.185000          0.605902E-03
      0.190000          0.567770E-03
      0.195000          0.533842E-03
      0.200000          0.503628E-03
      0.205000          0.476657E-03
      0.210000          0.452484E-03
      0.215000          0.430690E-03
      0.220000          0.410889E-03
      0.225000          0.392728E-03
      0.230000          0.375896E-03
      0.235000          0.360123E-03
      0.240000          0.345188E-03
      0.245000          0.330913E-03
      0.250000          0.317170E-03
      0.255000          0.303869E-03
      0.260000          0.290962E-03
      0.265000          0.278428E-03
      0.270000          0.266273E-03
      0.275000          0.254514E-03
      0.280000          0.243176E-03
      0.285000          0.232280E-03
      0.290000          0.221844E-03
      0.295000          0.211874E-03
      0.300000          0.202366E-03
      0.305000          0.193309E-03
      0.310000          0.184687E-03
      0.315000          0.176484E-03
      0.320000          0.168688E-03
      0.325000          0.161300E-03
      0.330000          0.154329E-03
      0.335000          0.147801E-03
      0.340000          0.141752E-03
      0.345000          0.136226E-03
      0.350000          0.131270E-03
      0.355000          0.126927E-03
      0.360000          0.123228E-03
      0.365000          0.120190E-03
      0.370000          0.117805E-03
      0.375000          0.116046E-03
      0.380000          0.114860E-03
      0.385000          0.114172E-03
      0.390000          0.113896E-03
      0.395000          0.113932E-03
      0.400000          0.114180E-03
      0.405000          0.114544E-03
      0.410000          0.114941E-03
      0.415000          0.115304E-03
      0.420000          0.115583E-03
      0.425000          0.115750E-03
      0.430000          0.115795E-03
      0.435000          0.115722E-03
      0.440000          0.115547E-03
      0.445000          0.115289E-03
      0.450000          0.114970E-03
      0.455000          0.114608E-03
      0.460000          0.114212E-03
      0.465000          0.113784E-03
      0.470000          0.113315E-03
      0.475000          0.112792E-03
      0.480000          0.112195E-03
      0.485000          0.111502E-03
      0.490000          0.110694E-03
      0.495000          0.109758E-03
      0.500000          0.108689E-03
