 I_abs(s)[cm^-1]/c[mg/ml]
       0.00000          0.141091E-01
      0.500000E-02      0.140478E-01
      0.100000E-01      0.138656E-01
      0.150000E-01      0.135669E-01
      0.200000E-01      0.131593E-01
      0.250000E-01      0.126526E-01
      0.300000E-01      0.120590E-01
      0.350000E-01      0.113924E-01
      0.400000E-01      0.106680E-01
      0.450000E-01      0.990166E-02
      0.500000E-01      0.910939E-02
      0.550000E-01      0.830688E-02
      0.600000E-01      0.750898E-02
      0.650000E-01      0.672931E-02
      0.700000E-01      0.597988E-02
      0.750000E-01      0.527083E-02
      0.800000E-01      0.461028E-02
      0.850000E-01      0.400424E-02
      0.900000E-01      0.345661E-02
      0.950000E-01      0.296927E-02
      0.100000          0.254228E-02
      0.105000          0.217401E-02
      0.110000          0.186151E-02
      0.115000          0.160070E-02
      0.120000          0.138670E-02
      0.125000          0.121414E-02
      0.130000          0.107738E-02
      0.135000          0.970799E-03
      0.140000          0.888982E-03
      0.145000          0.826876E-03
      0.150000          0.779929E-03
      0.155000          0.744159E-03
      0.160000          0.716201E-03
      0.165000          0.693307E-03
      0.170000          0.673324E-03
      0.175000          0.654644E-03
      0.180000          0.636142E-03
      0.185000          0.617103E-03
      0.190000          0.597142E-03
      0.195000          0.576131E-03
      0.200000          0.554127E-03
      0.205000          0.531309E-03
      0.210000          0.507932E-03
      0.215000          0.484278E-03
      0.220000          0.460631E-03
      0.225000          0.437256E-03
      0.230000          0.414384E-03
      0.235000          0.392208E-03
      0.240000          0.370884E-03
      0.245000          0.350530E-03
      0.250000          0.331234E-03
      0.255000          0.313057E-03
      0.260000          0.296037E-03
      0.265000          0.280196E-03
      0.270000          0.265541E-03
      0.275000          0.252063E-03
      0.280000          0.239747E-03
      0.285000          0.228563E-03
      0.290000          0.218472E-03
      0.295000          0.209426E-03
      0.300000          0.201367E-03
      0.305000          0.194231E-03
      0.310000          0.187949E-03
      0.315000          0.182446E-03
      0.320000          0.177650E-03
      0.325000          0.173489E-03
      0.330000          0.169895E-03
      0.335000          0.166805E-03
      0.340000          0.164165E-03
      0.345000          0.161926E-03
      0.350000          0.160046E-03
      0.355000          0.158490E-03
      0.360000          0.157226E-03
      0.365000          0.156224E-03
      0.370000          0.155453E-03
      0.375000          0.154880E-03
      0.380000          0.154468E-03
      0.385000          0.154174E-03
      0.390000          0.153950E-03
      0.395000          0.153741E-03
      0.400000          0.153491E-03
      0.405000          0.153137E-03
      0.410000          0.152620E-03
      0.415000          0.151882E-03
      0.420000          0.150871E-03
      0.425000          0.149546E-03
      0.430000          0.147875E-03
      0.435000          0.145840E-03
      0.440000          0.143441E-03
      0.445000          0.140690E-03
      0.450000          0.137615E-03
      0.455000          0.134259E-03
      0.460000          0.130674E-03
      0.465000          0.126924E-03
      0.470000          0.123075E-03
      0.475000          0.119197E-03
      0.480000          0.115358E-03
      0.485000          0.111623E-03
      0.490000          0.108046E-03
      0.495000          0.104673E-03
      0.500000          0.101541E-03
