 I_abs(s)[cm^-1]/c[mg/ml]
       0.00000          0.144555E-01
      0.500000E-02      0.143837E-01
      0.100000E-01      0.141709E-01
      0.150000E-01      0.138246E-01
      0.200000E-01      0.133570E-01
      0.250000E-01      0.127839E-01
      0.300000E-01      0.121238E-01
      0.350000E-01      0.113972E-01
      0.400000E-01      0.106248E-01
      0.450000E-01      0.982699E-02
      0.500000E-01      0.902273E-02
      0.550000E-01      0.822873E-02
      0.600000E-01      0.745900E-02
      0.650000E-01      0.672458E-02
      0.700000E-01      0.603350E-02
      0.750000E-01      0.539095E-02
      0.800000E-01      0.479962E-02
      0.850000E-01      0.426010E-02
      0.900000E-01      0.377137E-02
      0.950000E-01      0.333128E-02
      0.100000          0.293699E-02
      0.105000          0.258528E-02
      0.110000          0.227288E-02
      0.115000          0.199657E-02
      0.120000          0.175334E-02
      0.125000          0.154034E-02
      0.130000          0.135496E-02
      0.135000          0.119471E-02
      0.140000          0.105720E-02
      0.145000          0.940118E-03
      0.150000          0.841221E-03
      0.155000          0.758312E-03
      0.160000          0.689275E-03
      0.165000          0.632111E-03
      0.170000          0.584961E-03
      0.175000          0.546145E-03
      0.180000          0.514176E-03
      0.185000          0.487769E-03
      0.190000          0.465834E-03
      0.195000          0.447462E-03
      0.200000          0.431895E-03
      0.205000          0.418506E-03
      0.210000          0.406767E-03
      0.215000          0.396236E-03
      0.220000          0.386540E-03
      0.225000          0.377369E-03
      0.230000          0.368478E-03
      0.235000          0.359687E-03
      0.240000          0.350883E-03
      0.245000          0.342019E-03
      0.250000          0.333108E-03
      0.255000          0.324214E-03
      0.260000          0.315430E-03
      0.265000          0.306865E-03
      0.270000          0.298620E-03
      0.275000          0.290770E-03
      0.280000          0.283351E-03
      0.285000          0.276352E-03
      0.290000          0.269713E-03
      0.295000          0.263334E-03
      0.300000          0.257087E-03
      0.305000          0.250830E-03
      0.310000          0.244427E-03
      0.315000          0.237763E-03
      0.320000          0.230757E-03
      0.325000          0.223372E-03
      0.330000          0.215615E-03
      0.335000          0.207538E-03
      0.340000          0.199230E-03
      0.345000          0.190807E-03
      0.350000          0.182400E-03
      0.355000          0.174143E-03
      0.360000          0.166163E-03
      0.365000          0.158574E-03
      0.370000          0.151467E-03
      0.375000          0.144911E-03
      0.380000          0.138951E-03
      0.385000          0.133610E-03
      0.390000          0.128890E-03
      0.395000          0.124777E-03
      0.400000          0.121243E-03
      0.405000          0.118248E-03
      0.410000          0.115744E-03
      0.415000          0.113679E-03
      0.420000          0.111992E-03
      0.425000          0.110625E-03
      0.430000          0.109514E-03
      0.435000          0.108603E-03
      0.440000          0.107836E-03
      0.445000          0.107164E-03
      0.450000          0.106546E-03
      0.455000          0.105951E-03
      0.460000          0.105356E-03
      0.465000          0.104746E-03
      0.470000          0.104115E-03
      0.475000          0.103461E-03
      0.480000          0.102787E-03
      0.485000          0.102096E-03
      0.490000          0.101392E-03
      0.495000          0.100675E-03
      0.500000          0.999468E-04
