 I_abs(s)[cm^-1]/c[mg/ml]
       0.00000          0.138628E-01
      0.500000E-02      0.137767E-01
      0.100000E-01      0.135218E-01
      0.150000E-01      0.131079E-01
      0.200000E-01      0.125507E-01
      0.250000E-01      0.118711E-01
      0.300000E-01      0.110934E-01
      0.350000E-01      0.102447E-01
      0.400000E-01      0.935271E-02
      0.450000E-01      0.844475E-02
      0.500000E-01      0.754627E-02
      0.550000E-01      0.667973E-02
      0.600000E-01      0.586380E-02
      0.650000E-01      0.511276E-02
      0.700000E-01      0.443628E-02
      0.750000E-01      0.383951E-02
      0.800000E-01      0.332345E-02
      0.850000E-01      0.288545E-02
      0.900000E-01      0.251999E-02
      0.950000E-01      0.221948E-02
      0.100000          0.197504E-02
      0.105000          0.177728E-02
      0.110000          0.161702E-02
      0.115000          0.148575E-02
      0.120000          0.137607E-02
      0.125000          0.128191E-02
      0.130000          0.119857E-02
      0.135000          0.112273E-02
      0.140000          0.105226E-02
      0.145000          0.986010E-03
      0.150000          0.923583E-03
      0.155000          0.865071E-03
      0.160000          0.810826E-03
      0.165000          0.761263E-03
      0.170000          0.716718E-03
      0.175000          0.677349E-03
      0.180000          0.643094E-03
      0.185000          0.613665E-03
      0.190000          0.588572E-03
      0.195000          0.567182E-03
      0.200000          0.548770E-03
      0.205000          0.532586E-03
      0.210000          0.517907E-03
      0.215000          0.504086E-03
      0.220000          0.490577E-03
      0.225000          0.476956E-03
      0.230000          0.462929E-03
      0.235000          0.448319E-03
      0.240000          0.433061E-03
      0.245000          0.417180E-03
      0.250000          0.400774E-03
      0.255000          0.383996E-03
      0.260000          0.367033E-03
      0.265000          0.350091E-03
      0.270000          0.333381E-03
      0.275000          0.317107E-03
      0.280000          0.301457E-03
      0.285000          0.286594E-03
      0.290000          0.272651E-03
      0.295000          0.259724E-03
      0.300000          0.247876E-03
      0.305000          0.237129E-03
      0.310000          0.227472E-03
      0.315000          0.218862E-03
      0.320000          0.211229E-03
      0.325000          0.204482E-03
      0.330000          0.198519E-03
      0.335000          0.193230E-03
      0.340000          0.188507E-03
      0.345000          0.184249E-03
      0.350000          0.180365E-03
      0.355000          0.176776E-03
      0.360000          0.173417E-03
      0.365000          0.170237E-03
      0.370000          0.167196E-03
      0.375000          0.164259E-03
      0.380000          0.161401E-03
      0.385000          0.158595E-03
      0.390000          0.155820E-03
      0.395000          0.153050E-03
      0.400000          0.150260E-03
      0.405000          0.147427E-03
      0.410000          0.144529E-03
      0.415000          0.141545E-03
      0.420000          0.138465E-03
      0.425000          0.135283E-03
      0.430000          0.132002E-03
      0.435000          0.128637E-03
      0.440000          0.125209E-03
      0.445000          0.121750E-03
      0.450000          0.118297E-03
      0.455000          0.114891E-03
      0.460000          0.111576E-03
      0.465000          0.108395E-03
      0.470000          0.105387E-03
      0.475000          0.102588E-03
      0.480000          0.100025E-03
      0.485000          0.977204E-04
      0.490000          0.956875E-04
      0.495000          0.939322E-04
      0.500000          0.924527E-04
