 I_abs(s)[cm^-1]/c[mg/ml]
       0.00000          0.142291E-01
      0.500000E-02      0.141836E-01
      0.100000E-01      0.140479E-01
      0.150000E-01      0.138248E-01
      0.200000E-01      0.135188E-01
      0.250000E-01      0.131357E-01
      0.300000E-01      0.126830E-01
      0.350000E-01      0.121693E-01
      0.400000E-01      0.116039E-01
      0.450000E-01      0.109968E-01
      0.500000E-01      0.103585E-01
      0.550000E-01      0.969919E-02
      0.600000E-01      0.902906E-02
      0.650000E-01      0.835768E-02
      0.700000E-01      0.769394E-02
      0.750000E-01      0.704578E-02
      0.800000E-01      0.642014E-02
      0.850000E-01      0.582276E-02
      0.900000E-01      0.525822E-02
      0.950000E-01      0.472989E-02
      0.100000          0.423998E-02
      0.105000          0.378961E-02
      0.110000          0.337890E-02
      0.115000          0.300712E-02
      0.120000          0.267282E-02
      0.125000          0.237398E-02
      0.130000          0.210816E-02
      0.135000          0.187263E-02
      0.140000          0.166454E-02
      0.145000          0.148101E-02
      0.150000          0.131925E-02
      0.155000          0.117661E-02
      0.160000          0.105066E-02
      0.165000          0.939252E-03
      0.170000          0.840473E-03
      0.175000          0.752708E-03
      0.180000          0.674598E-03
      0.185000          0.605023E-03
      0.190000          0.543070E-03
      0.195000          0.487998E-03
      0.200000          0.439200E-03
      0.205000          0.396170E-03
      0.210000          0.358469E-03
      0.215000          0.325697E-03
      0.220000          0.297474E-03
      0.225000          0.273424E-03
      0.230000          0.253164E-03
      0.235000          0.236303E-03
      0.240000          0.222445E-03
      0.245000          0.211189E-03
      0.250000          0.202140E-03
      0.255000          0.194919E-03
      0.260000          0.189168E-03
      0.265000          0.184564E-03
      0.270000          0.180818E-03
      0.275000          0.177688E-03
      0.280000          0.174975E-03
      0.285000          0.172526E-03
      0.290000          0.170230E-03
      0.295000          0.168017E-03
      0.300000          0.165846E-03
      0.305000          0.163704E-03
      0.310000          0.161596E-03
      0.315000          0.159539E-03
      0.320000          0.157553E-03
      0.325000          0.155657E-03
      0.330000          0.153865E-03
      0.335000          0.152182E-03
      0.340000          0.150603E-03
      0.345000          0.149109E-03
      0.350000          0.147676E-03
      0.355000          0.146267E-03
      0.360000          0.144842E-03
      0.365000          0.143358E-03
      0.370000          0.141773E-03
      0.375000          0.140049E-03
      0.380000          0.138154E-03
      0.385000          0.136066E-03
      0.390000          0.133772E-03
      0.395000          0.131272E-03
      0.400000          0.128575E-03
      0.405000          0.125703E-03
      0.410000          0.122687E-03
      0.415000          0.119565E-03
      0.420000          0.116379E-03
      0.425000          0.113175E-03
      0.430000          0.110002E-03
      0.435000          0.106905E-03
      0.440000          0.103923E-03
      0.445000          0.101094E-03
      0.450000          0.984455E-04
      0.455000          0.959987E-04
      0.460000          0.937660E-04
      0.465000          0.917514E-04
      0.470000          0.899512E-04
      0.475000          0.883542E-04
      0.480000          0.869436E-04
      0.485000          0.856975E-04
      0.490000          0.845907E-04
      0.495000          0.835960E-04
      0.500000          0.826859E-04
