 I_abs(s)[cm^-1]/c[mg/ml]
       0.00000          0.144259E-01
      0.500000E-02      0.143498E-01
      0.100000E-01      0.141241E-01
      0.150000E-01      0.137558E-01
      0.200000E-01      0.132566E-01
      0.250000E-01      0.126417E-01
      0.300000E-01      0.119297E-01
      0.350000E-01      0.111414E-01
      0.400000E-01      0.102987E-01
      0.450000E-01      0.942411E-02
      0.500000E-01      0.853945E-02
      0.550000E-01      0.766511E-02
      0.600000E-01      0.681930E-02
      0.650000E-01      0.601750E-02
      0.700000E-01      0.527201E-02
      0.750000E-01      0.459179E-02
      0.800000E-01      0.398238E-02
      0.850000E-01      0.344610E-02
      0.900000E-01      0.298230E-02
      0.950000E-01      0.258781E-02
      0.100000          0.225744E-02
      0.105000          0.198452E-02
      0.110000          0.176149E-02
      0.115000          0.158037E-02
      0.120000          0.143332E-02
      0.125000          0.131297E-02
      0.130000          0.121277E-02
      0.135000          0.112718E-02
      0.140000          0.105179E-02
      0.145000          0.983310E-03
      0.150000          0.919528E-03
      0.155000          0.859169E-03
      0.160000          0.801726E-03
      0.165000          0.747260E-03
      0.170000          0.696200E-03
      0.175000          0.649149E-03
      0.180000          0.606720E-03
      0.185000          0.569402E-03
      0.190000          0.537465E-03
      0.195000          0.510909E-03
      0.200000          0.489452E-03
      0.205000          0.472546E-03
      0.210000          0.459431E-03
      0.215000          0.449193E-03
      0.220000          0.440843E-03
      0.225000          0.433396E-03
      0.230000          0.425938E-03
      0.235000          0.417689E-03
      0.240000          0.408045E-03
      0.245000          0.396609E-03
      0.250000          0.383194E-03
      0.255000          0.367820E-03
      0.260000          0.350689E-03
      0.265000          0.332153E-03
      0.270000          0.312675E-03
      0.275000          0.292783E-03
      0.280000          0.273027E-03
      0.285000          0.253943E-03
      0.290000          0.236012E-03
      0.295000          0.219639E-03
      0.300000          0.205133E-03
      0.305000          0.192699E-03
      0.310000          0.182434E-03
      0.315000          0.174333E-03
      0.320000          0.168301E-03
      0.325000          0.164168E-03
      0.330000          0.161706E-03
      0.335000          0.160647E-03
      0.340000          0.160702E-03
      0.345000          0.161575E-03
      0.350000          0.162982E-03
      0.355000          0.164657E-03
      0.360000          0.166365E-03
      0.365000          0.167905E-03
      0.370000          0.169113E-03
      0.375000          0.169866E-03
      0.380000          0.170076E-03
      0.385000          0.169692E-03
      0.390000          0.168692E-03
      0.395000          0.167082E-03
      0.400000          0.164890E-03
      0.405000          0.162161E-03
      0.410000          0.158955E-03
      0.415000          0.155339E-03
      0.420000          0.151390E-03
      0.425000          0.147183E-03
      0.430000          0.142797E-03
      0.435000          0.138306E-03
      0.440000          0.133782E-03
      0.445000          0.129289E-03
      0.450000          0.124887E-03
      0.455000          0.120625E-03
      0.460000          0.116547E-03
      0.465000          0.112685E-03
      0.470000          0.109065E-03
      0.475000          0.105704E-03
      0.480000          0.102611E-03
      0.485000          0.997898E-04
      0.490000          0.972365E-04
      0.495000          0.949431E-04
      0.500000          0.928980E-04
