 I_abs(s)[cm^-1]/c[mg/ml]
       0.00000          0.143391E-01
      0.500000E-02      0.142560E-01
      0.100000E-01      0.140093E-01
      0.150000E-01      0.136071E-01
      0.200000E-01      0.130625E-01
      0.250000E-01      0.123928E-01
      0.300000E-01      0.116189E-01
      0.350000E-01      0.107640E-01
      0.400000E-01      0.985265E-02
      0.450000E-01      0.890984E-02
      0.500000E-01      0.795965E-02
      0.550000E-01      0.702446E-02
      0.600000E-01      0.612412E-02
      0.650000E-01      0.527537E-02
      0.700000E-01      0.449135E-02
      0.750000E-01      0.378154E-02
      0.800000E-01      0.315167E-02
      0.850000E-01      0.260399E-02
      0.900000E-01      0.213763E-02
      0.950000E-01      0.174904E-02
      0.100000          0.143259E-02
      0.105000          0.118112E-02
      0.110000          0.986521E-03
      0.115000          0.840276E-03
      0.120000          0.733918E-03
      0.125000          0.659411E-03
      0.130000          0.609431E-03
      0.135000          0.577553E-03
      0.140000          0.558346E-03
      0.145000          0.547392E-03
      0.150000          0.541241E-03
      0.155000          0.537315E-03
      0.160000          0.533791E-03
      0.165000          0.529467E-03
      0.170000          0.523628E-03
      0.175000          0.515924E-03
      0.180000          0.506265E-03
      0.185000          0.494735E-03
      0.190000          0.481526E-03
      0.195000          0.466899E-03
      0.200000          0.451148E-03
      0.205000          0.434583E-03
      0.210000          0.417522E-03
      0.215000          0.400282E-03
      0.220000          0.383169E-03
      0.225000          0.366479E-03
      0.230000          0.350479E-03
      0.235000          0.335406E-03
      0.240000          0.321451E-03
      0.245000          0.308752E-03
      0.250000          0.297385E-03
      0.255000          0.287367E-03
      0.260000          0.278648E-03
      0.265000          0.271124E-03
      0.270000          0.264646E-03
      0.275000          0.259029E-03
      0.280000          0.254075E-03
      0.285000          0.249581E-03
      0.290000          0.245359E-03
      0.295000          0.241251E-03
      0.300000          0.237133E-03
      0.305000          0.232924E-03
      0.310000          0.228588E-03
      0.315000          0.224127E-03
      0.320000          0.219580E-03
      0.325000          0.215010E-03
      0.330000          0.210494E-03
      0.335000          0.206114E-03
      0.340000          0.201944E-03
      0.345000          0.198044E-03
      0.350000          0.194449E-03
      0.355000          0.191172E-03
      0.360000          0.188198E-03
      0.365000          0.185487E-03
      0.370000          0.182979E-03
      0.375000          0.180602E-03
      0.380000          0.178274E-03
      0.385000          0.175913E-03
      0.390000          0.173446E-03
      0.395000          0.170810E-03
      0.400000          0.167959E-03
      0.405000          0.164867E-03
      0.410000          0.161529E-03
      0.415000          0.157958E-03
      0.420000          0.154186E-03
      0.425000          0.150257E-03
      0.430000          0.146225E-03
      0.435000          0.142153E-03
      0.440000          0.138100E-03
      0.445000          0.134127E-03
      0.450000          0.130289E-03
      0.455000          0.126631E-03
      0.460000          0.123194E-03
      0.465000          0.120005E-03
      0.470000          0.117085E-03
      0.475000          0.114449E-03
      0.480000          0.112101E-03
      0.485000          0.110043E-03
      0.490000          0.108271E-03
      0.495000          0.106779E-03
      0.500000          0.105555E-03
