 I_abs(s)[cm^-1]/c[mg/ml]
       0.00000          0.145922E-01
      0.500000E-02      0.145369E-01
      0.100000E-01      0.143720E-01
      0.150000E-01      0.141012E-01
      0.200000E-01      0.137306E-01
      0.250000E-01      0.132682E-01
      0.300000E-01      0.127238E-01
      0.350000E-01      0.121091E-01
      0.400000E-01      0.114364E-01
      0.450000E-01      0.107190E-01
      0.500000E-01      0.997065E-02
      0.550000E-01      0.920480E-02
      0.600000E-01      0.843454E-02
      0.650000E-01      0.767215E-02
      0.700000E-01      0.692878E-02
      0.750000E-01      0.621425E-02
      0.800000E-01      0.553682E-02
      0.850000E-01      0.490312E-02
      0.900000E-01      0.431806E-02
      0.950000E-01      0.378489E-02
      0.100000          0.330521E-02
      0.105000          0.287915E-02
      0.110000          0.250551E-02
      0.115000          0.218193E-02
      0.120000          0.190517E-02
      0.125000          0.167127E-02
      0.130000          0.147581E-02
      0.135000          0.131409E-02
      0.140000          0.118138E-02
      0.145000          0.107304E-02
      0.150000          0.984671E-03
      0.155000          0.912258E-03
      0.160000          0.852215E-03
      0.165000          0.801447E-03
      0.170000          0.757367E-03
      0.175000          0.717897E-03
      0.180000          0.681434E-03
      0.185000          0.646809E-03
      0.190000          0.613236E-03
      0.195000          0.580249E-03
      0.200000          0.547638E-03
      0.205000          0.515384E-03
      0.210000          0.483606E-03
      0.215000          0.452506E-03
      0.220000          0.422324E-03
      0.225000          0.393308E-03
      0.230000          0.365682E-03
      0.235000          0.339632E-03
      0.240000          0.315298E-03
      0.245000          0.292765E-03
      0.250000          0.272070E-03
      0.255000          0.253204E-03
      0.260000          0.236123E-03
      0.265000          0.220751E-03
      0.270000          0.206994E-03
      0.275000          0.194746E-03
      0.280000          0.183895E-03
      0.285000          0.174331E-03
      0.290000          0.165945E-03
      0.295000          0.158637E-03
      0.300000          0.152310E-03
      0.305000          0.146877E-03
      0.310000          0.142253E-03
      0.315000          0.138360E-03
      0.320000          0.135120E-03
      0.325000          0.132459E-03
      0.330000          0.130302E-03
      0.335000          0.128575E-03
      0.340000          0.127205E-03
      0.345000          0.126120E-03
      0.350000          0.125248E-03
      0.355000          0.124525E-03
      0.360000          0.123888E-03
      0.365000          0.123282E-03
      0.370000          0.122658E-03
      0.375000          0.121978E-03
      0.380000          0.121210E-03
      0.385000          0.120333E-03
      0.390000          0.119335E-03
      0.395000          0.118212E-03
      0.400000          0.116968E-03
      0.405000          0.115614E-03
      0.410000          0.114164E-03
      0.415000          0.112639E-03
      0.420000          0.111060E-03
      0.425000          0.109450E-03
      0.430000          0.107833E-03
      0.435000          0.106228E-03
      0.440000          0.104657E-03
      0.445000          0.103135E-03
      0.450000          0.101677E-03
      0.455000          0.100292E-03
      0.460000          0.989880E-04
      0.465000          0.977692E-04
      0.470000          0.966369E-04
      0.475000          0.955902E-04
      0.480000          0.946260E-04
      0.485000          0.937398E-04
      0.490000          0.929258E-04
      0.495000          0.921776E-04
      0.500000          0.914878E-04
