 I_abs(s)[cm^-1]/c[mg/ml]
       0.00000          0.141977E-01
      0.500000E-02      0.141112E-01
      0.100000E-01      0.138547E-01
      0.150000E-01      0.134374E-01
      0.200000E-01      0.128740E-01
      0.250000E-01      0.121837E-01
      0.300000E-01      0.113899E-01
      0.350000E-01      0.105179E-01
      0.400000E-01      0.959480E-02
      0.450000E-01      0.864725E-02
      0.500000E-01      0.770078E-02
      0.550000E-01      0.677852E-02
      0.600000E-01      0.590042E-02
      0.650000E-01      0.508257E-02
      0.700000E-01      0.433690E-02
      0.750000E-01      0.367106E-02
      0.800000E-01      0.308861E-02
      0.850000E-01      0.258938E-02
      0.900000E-01      0.217004E-02
      0.950000E-01      0.182473E-02
      0.100000          0.154577E-02
      0.105000          0.132441E-02
      0.110000          0.115145E-02
      0.115000          0.101785E-02
      0.120000          0.915204E-03
      0.125000          0.836040E-03
      0.130000          0.774054E-03
      0.135000          0.724182E-03
      0.140000          0.682575E-03
      0.145000          0.646488E-03
      0.150000          0.614111E-03
      0.155000          0.584376E-03
      0.160000          0.556741E-03
      0.165000          0.531004E-03
      0.170000          0.507137E-03
      0.175000          0.485159E-03
      0.180000          0.465052E-03
      0.185000          0.446719E-03
      0.190000          0.429971E-03
      0.195000          0.414549E-03
      0.200000          0.400154E-03
      0.205000          0.386490E-03
      0.210000          0.373307E-03
      0.215000          0.360428E-03
      0.220000          0.347770E-03
      0.225000          0.335348E-03
      0.230000          0.323271E-03
      0.235000          0.311712E-03
      0.240000          0.300886E-03
      0.245000          0.291018E-03
      0.250000          0.282303E-03
      0.255000          0.274886E-03
      0.260000          0.268841E-03
      0.265000          0.264155E-03
      0.270000          0.260730E-03
      0.275000          0.258390E-03
      0.280000          0.256898E-03
      0.285000          0.255973E-03
      0.290000          0.255316E-03
      0.295000          0.254637E-03
      0.300000          0.253669E-03
      0.305000          0.252194E-03
      0.310000          0.250053E-03
      0.315000          0.247150E-03
      0.320000          0.243460E-03
      0.325000          0.239017E-03
      0.330000          0.233913E-03
      0.335000          0.228279E-03
      0.340000          0.222277E-03
      0.345000          0.216081E-03
      0.350000          0.209867E-03
      0.355000          0.203798E-03
      0.360000          0.198012E-03
      0.365000          0.192622E-03
      0.370000          0.187702E-03
      0.375000          0.183291E-03
      0.380000          0.179395E-03
      0.385000          0.175985E-03
      0.390000          0.173009E-03
      0.395000          0.170391E-03
      0.400000          0.168044E-03
      0.405000          0.165875E-03
      0.410000          0.163790E-03
      0.415000          0.161706E-03
      0.420000          0.159548E-03
      0.425000          0.157261E-03
      0.430000          0.154808E-03
      0.435000          0.152171E-03
      0.440000          0.149352E-03
      0.445000          0.146371E-03
      0.450000          0.143265E-03
      0.455000          0.140079E-03
      0.460000          0.136868E-03
      0.465000          0.133690E-03
      0.470000          0.130603E-03
      0.475000          0.127658E-03
      0.480000          0.124901E-03
      0.485000          0.122367E-03
      0.490000          0.120079E-03
      0.495000          0.118050E-03
      0.500000          0.116280E-03
