 I_abs(s)[cm^-1]/c[mg/ml]
       0.00000          0.146957E-01
      0.500000E-02      0.146353E-01
      0.100000E-01      0.144554E-01
      0.150000E-01      0.141604E-01
      0.200000E-01      0.137571E-01
      0.250000E-01      0.132548E-01
      0.300000E-01      0.126649E-01
      0.350000E-01      0.120004E-01
      0.400000E-01      0.112757E-01
      0.450000E-01      0.105058E-01
      0.500000E-01      0.970613E-02
      0.550000E-01      0.889182E-02
      0.600000E-01      0.807741E-02
      0.650000E-01      0.727640E-02
      0.700000E-01      0.650090E-02
      0.750000E-01      0.576140E-02
      0.800000E-01      0.506654E-02
      0.850000E-01      0.442302E-02
      0.900000E-01      0.383558E-02
      0.950000E-01      0.330702E-02
      0.100000          0.283830E-02
      0.105000          0.242877E-02
      0.110000          0.207629E-02
      0.115000          0.177755E-02
      0.120000          0.152829E-02
      0.125000          0.132360E-02
      0.130000          0.115811E-02
      0.135000          0.102633E-02
      0.140000          0.922780E-03
      0.145000          0.842237E-03
      0.150000          0.779843E-03
      0.155000          0.731239E-03
      0.160000          0.692630E-03
      0.165000          0.660828E-03
      0.170000          0.633256E-03
      0.175000          0.607931E-03
      0.180000          0.583418E-03
      0.185000          0.558770E-03
      0.190000          0.533464E-03
      0.195000          0.507318E-03
      0.200000          0.480417E-03
      0.205000          0.453039E-03
      0.210000          0.425586E-03
      0.215000          0.398522E-03
      0.220000          0.372325E-03
      0.225000          0.347445E-03
      0.230000          0.324274E-03
      0.235000          0.303123E-03
      0.240000          0.284217E-03
      0.245000          0.267683E-03
      0.250000          0.253557E-03
      0.255000          0.241790E-03
      0.260000          0.232259E-03
      0.265000          0.224778E-03
      0.270000          0.219114E-03
      0.275000          0.215001E-03
      0.280000          0.212155E-03
      0.285000          0.210284E-03
      0.290000          0.209104E-03
      0.295000          0.208346E-03
      0.300000          0.207765E-03
      0.305000          0.207147E-03
      0.310000          0.206314E-03
      0.315000          0.205124E-03
      0.320000          0.203475E-03
      0.325000          0.201304E-03
      0.330000          0.198584E-03
      0.335000          0.195319E-03
      0.340000          0.191545E-03
      0.345000          0.187318E-03
      0.350000          0.182714E-03
      0.355000          0.177822E-03
      0.360000          0.172735E-03
      0.365000          0.167549E-03
      0.370000          0.162355E-03
      0.375000          0.157236E-03
      0.380000          0.152264E-03
      0.385000          0.147497E-03
      0.390000          0.142979E-03
      0.395000          0.138738E-03
      0.400000          0.134787E-03
      0.405000          0.131128E-03
      0.410000          0.127752E-03
      0.415000          0.124642E-03
      0.420000          0.121774E-03
      0.425000          0.119125E-03
      0.430000          0.116671E-03
      0.435000          0.114389E-03
      0.440000          0.112262E-03
      0.445000          0.110278E-03
      0.450000          0.108429E-03
      0.455000          0.106714E-03
      0.460000          0.105136E-03
      0.465000          0.103701E-03
      0.470000          0.102417E-03
      0.475000          0.101291E-03
      0.480000          0.100331E-03
      0.485000          0.995386E-04
      0.490000          0.989121E-04
      0.495000          0.984447E-04
      0.500000          0.981232E-04
