 I_abs(s)[cm^-1]/c[mg/ml]
       0.00000          0.143549E-01
      0.500000E-02      0.142884E-01
      0.100000E-01      0.140906E-01
      0.150000E-01      0.137666E-01
      0.200000E-01      0.133247E-01
      0.250000E-01      0.127761E-01
      0.300000E-01      0.121345E-01
      0.350000E-01      0.114153E-01
      0.400000E-01      0.106357E-01
      0.450000E-01      0.981316E-02
      0.500000E-01      0.896567E-02
      0.550000E-01      0.811061E-02
      0.600000E-01      0.726443E-02
      0.650000E-01      0.644211E-02
      0.700000E-01      0.565676E-02
      0.750000E-01      0.491935E-02
      0.800000E-01      0.423850E-02
      0.850000E-01      0.362040E-02
      0.900000E-01      0.306883E-02
      0.950000E-01      0.258527E-02
      0.100000          0.216908E-02
      0.105000          0.181778E-02
      0.110000          0.152735E-02
      0.115000          0.129257E-02
      0.120000          0.110735E-02
      0.125000          0.965113E-03
      0.130000          0.859078E-03
      0.135000          0.782569E-03
      0.140000          0.729251E-03
      0.145000          0.693325E-03
      0.150000          0.669674E-03
      0.155000          0.653945E-03
      0.160000          0.642590E-03
      0.165000          0.632864E-03
      0.170000          0.622773E-03
      0.175000          0.611010E-03
      0.180000          0.596856E-03
      0.185000          0.580076E-03
      0.190000          0.560808E-03
      0.195000          0.539454E-03
      0.200000          0.516583E-03
      0.205000          0.492841E-03
      0.210000          0.468879E-03
      0.215000          0.445300E-03
      0.220000          0.422616E-03
      0.225000          0.401228E-03
      0.230000          0.381417E-03
      0.235000          0.363343E-03
      0.240000          0.347059E-03
      0.245000          0.332526E-03
      0.250000          0.319635E-03
      0.255000          0.308227E-03
      0.260000          0.298113E-03
      0.265000          0.289097E-03
      0.270000          0.280983E-03
      0.275000          0.273594E-03
      0.280000          0.266773E-03
      0.285000          0.260392E-03
      0.290000          0.254346E-03
      0.295000          0.248560E-03
      0.300000          0.242977E-03
      0.305000          0.237558E-03
      0.310000          0.232278E-03
      0.315000          0.227117E-03
      0.320000          0.222061E-03
      0.325000          0.217096E-03
      0.330000          0.212207E-03
      0.335000          0.207377E-03
      0.340000          0.202588E-03
      0.345000          0.197819E-03
      0.350000          0.193052E-03
      0.355000          0.188267E-03
      0.360000          0.183451E-03
      0.365000          0.178593E-03
      0.370000          0.173689E-03
      0.375000          0.168743E-03
      0.380000          0.163763E-03
      0.385000          0.158764E-03
      0.390000          0.153770E-03
      0.395000          0.148805E-03
      0.400000          0.143902E-03
      0.405000          0.139093E-03
      0.410000          0.134410E-03
      0.415000          0.129888E-03
      0.420000          0.125556E-03
      0.425000          0.121444E-03
      0.430000          0.117576E-03
      0.435000          0.113972E-03
      0.440000          0.110647E-03
      0.445000          0.107614E-03
      0.450000          0.104876E-03
      0.455000          0.102437E-03
      0.460000          0.100292E-03
      0.465000          0.984341E-04
      0.470000          0.968535E-04
      0.475000          0.955356E-04
      0.480000          0.944631E-04
      0.485000          0.936163E-04
      0.490000          0.929728E-04
      0.495000          0.925083E-04
      0.500000          0.921965E-04
