 I_abs(s)[cm^-1]/c[mg/ml]
       0.00000          0.145446E-01
      0.500000E-02      0.144790E-01
      0.100000E-01      0.142839E-01
      0.150000E-01      0.139646E-01
      0.200000E-01      0.135298E-01
      0.250000E-01      0.129909E-01
      0.300000E-01      0.123619E-01
      0.350000E-01      0.116584E-01
      0.400000E-01      0.108974E-01
      0.450000E-01      0.100962E-01
      0.500000E-01      0.927202E-02
      0.550000E-01      0.844134E-02
      0.600000E-01      0.761940E-02
      0.650000E-01      0.681979E-02
      0.700000E-01      0.605412E-02
      0.750000E-01      0.533184E-02
      0.800000E-01      0.466020E-02
      0.850000E-01      0.404424E-02
      0.900000E-01      0.348695E-02
      0.950000E-01      0.298942E-02
      0.100000          0.255110E-02
      0.105000          0.217008E-02
      0.110000          0.184333E-02
      0.115000          0.156702E-02
      0.120000          0.133673E-02
      0.125000          0.114770E-02
      0.130000          0.995026E-03
      0.135000          0.873817E-03
      0.140000          0.779319E-03
      0.145000          0.707023E-03
      0.150000          0.652732E-03
      0.155000          0.612620E-03
      0.160000          0.583260E-03
      0.165000          0.561652E-03
      0.170000          0.545229E-03
      0.175000          0.531858E-03
      0.180000          0.519834E-03
      0.185000          0.507857E-03
      0.190000          0.495011E-03
      0.195000          0.480727E-03
      0.200000          0.464739E-03
      0.205000          0.447038E-03
      0.210000          0.427816E-03
      0.215000          0.407415E-03
      0.220000          0.386264E-03
      0.225000          0.364835E-03
      0.230000          0.343594E-03
      0.235000          0.322964E-03
      0.240000          0.303298E-03
      0.245000          0.284862E-03
      0.250000          0.267828E-03
      0.255000          0.252277E-03
      0.260000          0.238210E-03
      0.265000          0.225565E-03
      0.270000          0.214232E-03
      0.275000          0.204080E-03
      0.280000          0.194969E-03
      0.285000          0.186766E-03
      0.290000          0.179360E-03
      0.295000          0.172665E-03
      0.300000          0.166622E-03
      0.305000          0.161199E-03
      0.310000          0.156379E-03
      0.315000          0.152161E-03
      0.320000          0.148546E-03
      0.325000          0.145530E-03
      0.330000          0.143103E-03
      0.335000          0.141237E-03
      0.340000          0.139893E-03
      0.345000          0.139014E-03
      0.350000          0.138534E-03
      0.355000          0.138376E-03
      0.360000          0.138463E-03
      0.365000          0.138717E-03
      0.370000          0.139065E-03
      0.375000          0.139446E-03
      0.380000          0.139804E-03
      0.385000          0.140100E-03
      0.390000          0.140300E-03
      0.395000          0.140383E-03
      0.400000          0.140334E-03
      0.405000          0.140143E-03
      0.410000          0.139801E-03
      0.415000          0.139302E-03
      0.420000          0.138641E-03
      0.425000          0.137811E-03
      0.430000          0.136806E-03
      0.435000          0.135620E-03
      0.440000          0.134251E-03
      0.445000          0.132698E-03
      0.450000          0.130966E-03
      0.455000          0.129065E-03
      0.460000          0.127011E-03
      0.465000          0.124823E-03
      0.470000          0.122528E-03
      0.475000          0.120156E-03
      0.480000          0.117738E-03
      0.485000          0.115307E-03
      0.490000          0.112896E-03
      0.495000          0.110537E-03
      0.500000          0.108256E-03
