 I_abs(s)[cm^-1]/c[mg/ml]
       0.00000          0.146638E-01
      0.500000E-02      0.146026E-01
      0.100000E-01      0.144205E-01
      0.150000E-01      0.141220E-01
      0.200000E-01      0.137142E-01
      0.250000E-01      0.132069E-01
      0.300000E-01      0.126118E-01
      0.350000E-01      0.119426E-01
      0.400000E-01      0.112139E-01
      0.450000E-01      0.104413E-01
      0.500000E-01      0.964035E-02
      0.550000E-01      0.882648E-02
      0.600000E-01      0.801421E-02
      0.650000E-01      0.721695E-02
      0.700000E-01      0.644657E-02
      0.750000E-01      0.571318E-02
      0.800000E-01      0.502498E-02
      0.850000E-01      0.438812E-02
      0.900000E-01      0.380680E-02
      0.950000E-01      0.328327E-02
      0.100000          0.281801E-02
      0.105000          0.240994E-02
      0.110000          0.205667E-02
      0.115000          0.175471E-02
      0.120000          0.149983E-02
      0.125000          0.128724E-02
      0.130000          0.111188E-02
      0.135000          0.968686E-03
      0.140000          0.852699E-03
      0.145000          0.759287E-03
      0.150000          0.684230E-03
      0.155000          0.623804E-03
      0.160000          0.574822E-03
      0.165000          0.534635E-03
      0.170000          0.501121E-03
      0.175000          0.472636E-03
      0.180000          0.447962E-03
      0.185000          0.426239E-03
      0.190000          0.406894E-03
      0.195000          0.389576E-03
      0.200000          0.374086E-03
      0.205000          0.360325E-03
      0.210000          0.348239E-03
      0.215000          0.337790E-03
      0.220000          0.328923E-03
      0.225000          0.321550E-03
      0.230000          0.315539E-03
      0.235000          0.310718E-03
      0.240000          0.306876E-03
      0.245000          0.303773E-03
      0.250000          0.301154E-03
      0.255000          0.298758E-03
      0.260000          0.296337E-03
      0.265000          0.293663E-03
      0.270000          0.290543E-03
      0.275000          0.286826E-03
      0.280000          0.282408E-03
      0.285000          0.277235E-03
      0.290000          0.271307E-03
      0.295000          0.264668E-03
      0.300000          0.257410E-03
      0.305000          0.249660E-03
      0.310000          0.241575E-03
      0.315000          0.233330E-03
      0.320000          0.225112E-03
      0.325000          0.217107E-03
      0.330000          0.209490E-03
      0.335000          0.202420E-03
      0.340000          0.196029E-03
      0.345000          0.190416E-03
      0.350000          0.185644E-03
      0.355000          0.181737E-03
      0.360000          0.178681E-03
      0.365000          0.176424E-03
      0.370000          0.174877E-03
      0.375000          0.173927E-03
      0.380000          0.173432E-03
      0.385000          0.173239E-03
      0.390000          0.173185E-03
      0.395000          0.173107E-03
      0.400000          0.172850E-03
      0.405000          0.172273E-03
      0.410000          0.171257E-03
      0.415000          0.169708E-03
      0.420000          0.167561E-03
      0.425000          0.164783E-03
      0.430000          0.161370E-03
      0.435000          0.157351E-03
      0.440000          0.152779E-03
      0.445000          0.147732E-03
      0.450000          0.142307E-03
      0.455000          0.136613E-03
      0.460000          0.130767E-03
      0.465000          0.124887E-03
      0.470000          0.119088E-03
      0.475000          0.113476E-03
      0.480000          0.108143E-03
      0.485000          0.103168E-03
      0.490000          0.986096E-04
      0.495000          0.945078E-04
      0.500000          0.908843E-04
