 I_abs(s)[cm^-1]/c[mg/ml]
       0.00000          0.136392E-01
      0.500000E-02      0.135002E-01
      0.100000E-01      0.130951E-01
      0.150000E-01      0.124572E-01
      0.200000E-01      0.116373E-01
      0.250000E-01      0.106972E-01
      0.300000E-01      0.970171E-02
      0.350000E-01      0.871175E-02
      0.400000E-01      0.777743E-02
      0.450000E-01      0.693380E-02
      0.500000E-01      0.619907E-02
      0.550000E-01      0.557521E-02
      0.600000E-01      0.505090E-02
      0.650000E-01      0.460601E-02
      0.700000E-01      0.421658E-02
      0.750000E-01      0.385971E-02
      0.800000E-01      0.351731E-02
      0.850000E-01      0.317843E-02
      0.900000E-01      0.283980E-02
      0.950000E-01      0.250498E-02
      0.100000          0.218219E-02
      0.105000          0.188173E-02
      0.110000          0.161330E-02
      0.115000          0.138390E-02
      0.120000          0.119653E-02
      0.125000          0.104990E-02
      0.130000          0.939040E-03
      0.135000          0.856539E-03
      0.140000          0.794064E-03
      0.145000          0.743852E-03
      0.150000          0.699842E-03
      0.155000          0.658280E-03
      0.160000          0.617756E-03
      0.165000          0.578754E-03
      0.170000          0.542889E-03
      0.175000          0.512048E-03
      0.180000          0.487635E-03
      0.185000          0.470078E-03
      0.190000          0.458658E-03
      0.195000          0.451663E-03
      0.200000          0.446781E-03
      0.205000          0.441599E-03
      0.210000          0.434092E-03
      0.215000          0.422980E-03
      0.220000          0.407894E-03
      0.225000          0.389329E-03
      0.230000          0.368428E-03
      0.235000          0.346665E-03
      0.240000          0.325501E-03
      0.245000          0.306103E-03
      0.250000          0.289172E-03
      0.255000          0.274903E-03
      0.260000          0.263056E-03
      0.265000          0.253123E-03
      0.270000          0.244510E-03
      0.275000          0.236711E-03
      0.280000          0.229418E-03
      0.285000          0.222558E-03
      0.290000          0.216255E-03
      0.295000          0.210736E-03
      0.300000          0.206222E-03
      0.305000          0.202826E-03
      0.310000          0.200485E-03
      0.315000          0.198953E-03
      0.320000          0.197831E-03
      0.325000          0.196652E-03
      0.330000          0.194965E-03
      0.335000          0.192431E-03
      0.340000          0.188877E-03
      0.345000          0.184319E-03
      0.350000          0.178947E-03
      0.355000          0.173068E-03
      0.360000          0.167038E-03
      0.365000          0.161190E-03
      0.370000          0.155773E-03
      0.375000          0.150919E-03
      0.380000          0.146639E-03
      0.385000          0.142847E-03
      0.390000          0.139398E-03
      0.395000          0.136137E-03
      0.400000          0.132943E-03
      0.405000          0.129754E-03
      0.410000          0.126581E-03
      0.415000          0.123494E-03
      0.420000          0.120598E-03
      0.425000          0.118007E-03
      0.430000          0.115807E-03
      0.435000          0.114040E-03
      0.440000          0.112690E-03
      0.445000          0.111694E-03
      0.450000          0.110951E-03
      0.455000          0.110351E-03
      0.460000          0.109795E-03
      0.465000          0.109212E-03
      0.470000          0.108570E-03
      0.475000          0.107875E-03
      0.480000          0.107156E-03
      0.485000          0.106456E-03
      0.490000          0.105806E-03
      0.495000          0.105220E-03
      0.500000          0.104679E-03
