 I_abs(s)[cm^-1]/c[mg/ml]
       0.00000          0.133033E-01
      0.500000E-02      0.131473E-01
      0.100000E-01      0.126946E-01
      0.150000E-01      0.119885E-01
      0.200000E-01      0.110940E-01
      0.250000E-01      0.100880E-01
      0.300000E-01      0.904864E-02
      0.350000E-01      0.804487E-02
      0.400000E-01      0.712865E-02
      0.450000E-01      0.633046E-02
      0.500000E-01      0.565889E-02
      0.550000E-01      0.510375E-02
      0.600000E-01      0.464187E-02
      0.650000E-01      0.424416E-02
      0.700000E-01      0.388242E-02
      0.750000E-01      0.353473E-02
      0.800000E-01      0.318851E-02
      0.850000E-01      0.284111E-02
      0.900000E-01      0.249816E-02
      0.950000E-01      0.217038E-02
      0.100000          0.186992E-02
      0.105000          0.160698E-02
      0.110000          0.138743E-02
      0.115000          0.121193E-02
      0.120000          0.107629E-02
      0.125000          0.972971E-03
      0.130000          0.893052E-03
      0.135000          0.828177E-03
      0.140000          0.772013E-03
      0.145000          0.720942E-03
      0.150000          0.673966E-03
      0.155000          0.631976E-03
      0.160000          0.596688E-03
      0.165000          0.569576E-03
      0.170000          0.551078E-03
      0.175000          0.540246E-03
      0.180000          0.534863E-03
      0.185000          0.531927E-03
      0.190000          0.528329E-03
      0.195000          0.521507E-03
      0.200000          0.509928E-03
      0.205000          0.493273E-03
      0.210000          0.472333E-03
      0.215000          0.448666E-03
      0.220000          0.424135E-03
      0.225000          0.400459E-03
      0.230000          0.378863E-03
      0.235000          0.359920E-03
      0.240000          0.343563E-03
      0.245000          0.329250E-03
      0.250000          0.316212E-03
      0.255000          0.303700E-03
      0.260000          0.291180E-03
      0.265000          0.278424E-03
      0.270000          0.265515E-03
      0.275000          0.252755E-03
      0.280000          0.240539E-03
      0.285000          0.229225E-03
      0.290000          0.219036E-03
      0.295000          0.210017E-03
      0.300000          0.202048E-03
      0.305000          0.194902E-03
      0.310000          0.188327E-03
      0.315000          0.182125E-03
      0.320000          0.176209E-03
      0.325000          0.170623E-03
      0.330000          0.165525E-03
      0.335000          0.161135E-03
      0.340000          0.157668E-03
      0.345000          0.155262E-03
      0.350000          0.153928E-03
      0.355000          0.153520E-03
      0.360000          0.153745E-03
      0.365000          0.154201E-03
      0.370000          0.154447E-03
      0.375000          0.154066E-03
      0.380000          0.152744E-03
      0.385000          0.150315E-03
      0.390000          0.146789E-03
      0.395000          0.142339E-03
      0.400000          0.137266E-03
      0.405000          0.131944E-03
      0.410000          0.126749E-03
      0.415000          0.122000E-03
      0.420000          0.117907E-03
      0.425000          0.114554E-03
      0.430000          0.111894E-03
      0.435000          0.109778E-03
      0.440000          0.107991E-03
      0.445000          0.106304E-03
      0.450000          0.104517E-03
      0.455000          0.102491E-03
      0.460000          0.100170E-03
      0.465000          0.975770E-04
      0.470000          0.948002E-04
      0.475000          0.919654E-04
      0.480000          0.892058E-04
      0.485000          0.866343E-04
      0.490000          0.843244E-04
      0.495000          0.823024E-04
      0.500000          0.805509E-04
