 I_abs(s)[cm^-1]/c[mg/ml]
       0.00000          0.141351E-01
      0.500000E-02      0.140769E-01
      0.100000E-01      0.139036E-01
      0.150000E-01      0.136193E-01
      0.200000E-01      0.132308E-01
      0.250000E-01      0.127470E-01
      0.300000E-01      0.121791E-01
      0.350000E-01      0.115398E-01
      0.400000E-01      0.108430E-01
      0.450000E-01      0.101035E-01
      0.500000E-01      0.933610E-02
      0.550000E-01      0.855574E-02
      0.600000E-01      0.777656E-02
      0.650000E-01      0.701173E-02
      0.700000E-01      0.627305E-02
      0.750000E-01      0.557070E-02
      0.800000E-01      0.491302E-02
      0.850000E-01      0.430644E-02
      0.900000E-01      0.375539E-02
      0.950000E-01      0.326235E-02
      0.100000          0.282799E-02
      0.105000          0.245130E-02
      0.110000          0.212982E-02
      0.115000          0.185988E-02
      0.120000          0.163688E-02
      0.125000          0.145555E-02
      0.130000          0.131027E-02
      0.135000          0.119525E-02
      0.140000          0.110484E-02
      0.145000          0.103367E-02
      0.150000          0.976860E-03
      0.155000          0.930080E-03
      0.160000          0.889675E-03
      0.165000          0.852681E-03
      0.170000          0.816827E-03
      0.175000          0.780505E-03
      0.180000          0.742710E-03
      0.185000          0.702965E-03
      0.190000          0.661230E-03
      0.195000          0.617805E-03
      0.200000          0.573237E-03
      0.205000          0.528226E-03
      0.210000          0.483543E-03
      0.215000          0.439961E-03
      0.220000          0.398199E-03
      0.225000          0.358876E-03
      0.230000          0.322492E-03
      0.235000          0.289404E-03
      0.240000          0.259834E-03
      0.245000          0.233868E-03
      0.250000          0.211478E-03
      0.255000          0.192535E-03
      0.260000          0.176837E-03
      0.265000          0.164127E-03
      0.270000          0.154115E-03
      0.275000          0.146499E-03
      0.280000          0.140976E-03
      0.285000          0.137258E-03
      0.290000          0.135073E-03
      0.295000          0.134177E-03
      0.300000          0.134348E-03
      0.305000          0.135386E-03
      0.310000          0.137113E-03
      0.315000          0.139364E-03
      0.320000          0.141989E-03
      0.325000          0.144845E-03
      0.330000          0.147796E-03
      0.335000          0.150710E-03
      0.340000          0.153463E-03
      0.345000          0.155936E-03
      0.350000          0.158020E-03
      0.355000          0.159617E-03
      0.360000          0.160646E-03
      0.365000          0.161046E-03
      0.370000          0.160777E-03
      0.375000          0.159821E-03
      0.380000          0.158189E-03
      0.385000          0.155915E-03
      0.390000          0.153057E-03
      0.395000          0.149693E-03
      0.400000          0.145921E-03
      0.405000          0.141850E-03
      0.410000          0.137597E-03
      0.415000          0.133284E-03
      0.420000          0.129026E-03
      0.425000          0.124935E-03
      0.430000          0.121106E-03
      0.435000          0.117622E-03
      0.440000          0.114544E-03
      0.445000          0.111914E-03
      0.450000          0.109752E-03
      0.455000          0.108058E-03
      0.460000          0.106812E-03
      0.465000          0.105978E-03
      0.470000          0.105504E-03
      0.475000          0.105327E-03
      0.480000          0.105378E-03
      0.485000          0.105584E-03
      0.490000          0.105872E-03
      0.495000          0.106170E-03
      0.500000          0.106415E-03
