 I_abs(s)[cm^-1]/c[mg/ml]
       0.00000          0.145843E-01
      0.500000E-02      0.145137E-01
      0.100000E-01      0.143042E-01
      0.150000E-01      0.139620E-01
      0.200000E-01      0.134973E-01
      0.250000E-01      0.129235E-01
      0.300000E-01      0.122571E-01
      0.350000E-01      0.115164E-01
      0.400000E-01      0.107209E-01
      0.450000E-01      0.989071E-02
      0.500000E-01      0.904536E-02
      0.550000E-01      0.820335E-02
      0.600000E-01      0.738143E-02
      0.650000E-01      0.659406E-02
      0.700000E-01      0.585309E-02
      0.750000E-01      0.516756E-02
      0.800000E-01      0.454362E-02
      0.850000E-01      0.398466E-02
      0.900000E-01      0.349148E-02
      0.950000E-01      0.306262E-02
      0.100000          0.269475E-02
      0.105000          0.238307E-02
      0.110000          0.212175E-02
      0.115000          0.190435E-02
      0.120000          0.172421E-02
      0.125000          0.157477E-02
      0.130000          0.144986E-02
      0.135000          0.134388E-02
      0.140000          0.125198E-02
      0.145000          0.117010E-02
      0.150000          0.109500E-02
      0.155000          0.102426E-02
      0.160000          0.956156E-03
      0.165000          0.889646E-03
      0.170000          0.824213E-03
      0.175000          0.759779E-03
      0.180000          0.696589E-03
      0.185000          0.635110E-03
      0.190000          0.575937E-03
      0.195000          0.519713E-03
      0.200000          0.467066E-03
      0.205000          0.418549E-03
      0.210000          0.374612E-03
      0.215000          0.335565E-03
      0.220000          0.301572E-03
      0.225000          0.272643E-03
      0.230000          0.248641E-03
      0.235000          0.229295E-03
      0.240000          0.214216E-03
      0.245000          0.202925E-03
      0.250000          0.194880E-03
      0.255000          0.189502E-03
      0.260000          0.186207E-03
      0.265000          0.184431E-03
      0.270000          0.183656E-03
      0.275000          0.183433E-03
      0.280000          0.183389E-03
      0.285000          0.183242E-03
      0.290000          0.182803E-03
      0.295000          0.181970E-03
      0.300000          0.180721E-03
      0.305000          0.179099E-03
      0.310000          0.177202E-03
      0.315000          0.175156E-03
      0.320000          0.173105E-03
      0.325000          0.171190E-03
      0.330000          0.169535E-03
      0.335000          0.168235E-03
      0.340000          0.167350E-03
      0.345000          0.166900E-03
      0.350000          0.166863E-03
      0.355000          0.167181E-03
      0.360000          0.167764E-03
      0.365000          0.168500E-03
      0.370000          0.169264E-03
      0.375000          0.169924E-03
      0.380000          0.170357E-03
      0.385000          0.170451E-03
      0.390000          0.170116E-03
      0.395000          0.169285E-03
      0.400000          0.167922E-03
      0.405000          0.166016E-03
      0.410000          0.163583E-03
      0.415000          0.160666E-03
      0.420000          0.157324E-03
      0.425000          0.153633E-03
      0.430000          0.149677E-03
      0.435000          0.145544E-03
      0.440000          0.141318E-03
      0.445000          0.137080E-03
      0.450000          0.132897E-03
      0.455000          0.128825E-03
      0.460000          0.124905E-03
      0.465000          0.121164E-03
      0.470000          0.117615E-03
      0.475000          0.114257E-03
      0.480000          0.111080E-03
      0.485000          0.108069E-03
      0.490000          0.105201E-03
      0.495000          0.102456E-03
      0.500000          0.998133E-04
