 I_abs(s)[cm^-1]/c[mg/ml]
       0.00000          0.139636E-01
      0.500000E-02      0.138886E-01
      0.100000E-01      0.136655E-01
      0.150000E-01      0.133011E-01
      0.200000E-01      0.128057E-01
      0.250000E-01      0.121934E-01
      0.300000E-01      0.114815E-01
      0.350000E-01      0.106895E-01
      0.400000E-01      0.983825E-02
      0.450000E-01      0.894971E-02
      0.500000E-01      0.804560E-02
      0.550000E-01      0.714682E-02
      0.600000E-01      0.627272E-02
      0.650000E-01      0.544047E-02
      0.700000E-01      0.466457E-02
      0.750000E-01      0.395649E-02
      0.800000E-01      0.332449E-02
      0.850000E-01      0.277351E-02
      0.900000E-01      0.230532E-02
      0.950000E-01      0.191869E-02
      0.100000          0.160977E-02
      0.105000          0.137247E-02
      0.110000          0.119897E-02
      0.115000          0.108023E-02
      0.120000          0.100652E-02
      0.125000          0.967909E-03
      0.130000          0.954735E-03
      0.135000          0.958004E-03
      0.140000          0.969706E-03
      0.145000          0.983054E-03
      0.150000          0.992631E-03
      0.155000          0.994449E-03
      0.160000          0.985932E-03
      0.165000          0.965818E-03
      0.170000          0.934019E-03
      0.175000          0.891423E-03
      0.180000          0.839676E-03
      0.185000          0.780955E-03
      0.190000          0.717738E-03
      0.195000          0.652590E-03
      0.200000          0.587980E-03
      0.205000          0.526128E-03
      0.210000          0.468888E-03
      0.215000          0.417672E-03
      0.220000          0.373419E-03
      0.225000          0.336590E-03
      0.230000          0.307200E-03
      0.235000          0.284875E-03
      0.240000          0.268926E-03
      0.245000          0.258432E-03
      0.250000          0.252327E-03
      0.255000          0.249489E-03
      0.260000          0.248812E-03
      0.265000          0.249280E-03
      0.270000          0.250011E-03
      0.275000          0.250293E-03
      0.280000          0.249608E-03
      0.285000          0.247632E-03
      0.290000          0.244225E-03
      0.295000          0.239410E-03
      0.300000          0.233348E-03
      0.305000          0.226301E-03
      0.310000          0.218594E-03
      0.315000          0.210587E-03
      0.320000          0.202633E-03
      0.325000          0.195059E-03
      0.330000          0.188138E-03
      0.335000          0.182078E-03
      0.340000          0.177010E-03
      0.345000          0.172992E-03
      0.350000          0.170004E-03
      0.355000          0.167968E-03
      0.360000          0.166750E-03
      0.365000          0.166180E-03
      0.370000          0.166066E-03
      0.375000          0.166210E-03
      0.380000          0.166419E-03
      0.385000          0.166522E-03
      0.390000          0.166374E-03
      0.395000          0.165867E-03
      0.400000          0.164929E-03
      0.405000          0.163529E-03
      0.410000          0.161671E-03
      0.415000          0.159391E-03
      0.420000          0.156752E-03
      0.425000          0.153837E-03
      0.430000          0.150738E-03
      0.435000          0.147552E-03
      0.440000          0.144373E-03
      0.445000          0.141285E-03
      0.450000          0.138358E-03
      0.455000          0.135643E-03
      0.460000          0.133171E-03
      0.465000          0.130955E-03
      0.470000          0.128986E-03
      0.475000          0.127239E-03
      0.480000          0.125673E-03
      0.485000          0.124240E-03
      0.490000          0.122882E-03
      0.495000          0.121542E-03
      0.500000          0.120165E-03
