 I_abs(s)[cm^-1]/c[mg/ml]
       0.00000          0.143077E-01
      0.500000E-02      0.142502E-01
      0.100000E-01      0.140793E-01
      0.150000E-01      0.137987E-01
      0.200000E-01      0.134150E-01
      0.250000E-01      0.129367E-01
      0.300000E-01      0.123744E-01
      0.350000E-01      0.117402E-01
      0.400000E-01      0.110474E-01
      0.450000E-01      0.103102E-01
      0.500000E-01      0.954267E-02
      0.550000E-01      0.875916E-02
      0.600000E-01      0.797322E-02
      0.650000E-01      0.719756E-02
      0.700000E-01      0.644364E-02
      0.750000E-01      0.572145E-02
      0.800000E-01      0.503935E-02
      0.850000E-01      0.440392E-02
      0.900000E-01      0.381998E-02
      0.950000E-01      0.329060E-02
      0.100000          0.281719E-02
      0.105000          0.239966E-02
      0.110000          0.203659E-02
      0.115000          0.172544E-02
      0.120000          0.146278E-02
      0.125000          0.124451E-02
      0.130000          0.106608E-02
      0.135000          0.922729E-03
      0.140000          0.809630E-03
      0.145000          0.722073E-03
      0.150000          0.655593E-03
      0.155000          0.606067E-03
      0.160000          0.569783E-03
      0.165000          0.543488E-03
      0.170000          0.524399E-03
      0.175000          0.510198E-03
      0.180000          0.499016E-03
      0.185000          0.489390E-03
      0.190000          0.480226E-03
      0.195000          0.470747E-03
      0.200000          0.460442E-03
      0.205000          0.449020E-03
      0.210000          0.436364E-03
      0.215000          0.422484E-03
      0.220000          0.407490E-03
      0.225000          0.391553E-03
      0.230000          0.374884E-03
      0.235000          0.357717E-03
      0.240000          0.340290E-03
      0.245000          0.322833E-03
      0.250000          0.305568E-03
      0.255000          0.288693E-03
      0.260000          0.272388E-03
      0.265000          0.256807E-03
      0.270000          0.242080E-03
      0.275000          0.228312E-03
      0.280000          0.215582E-03
      0.285000          0.203948E-03
      0.290000          0.193443E-03
      0.295000          0.184078E-03
      0.300000          0.175846E-03
      0.305000          0.168723E-03
      0.310000          0.162666E-03
      0.315000          0.157622E-03
      0.320000          0.153526E-03
      0.325000          0.150305E-03
      0.330000          0.147878E-03
      0.335000          0.146163E-03
      0.340000          0.145073E-03
      0.345000          0.144524E-03
      0.350000          0.144432E-03
      0.355000          0.144716E-03
      0.360000          0.145297E-03
      0.365000          0.146103E-03
      0.370000          0.147065E-03
      0.375000          0.148119E-03
      0.380000          0.149207E-03
      0.385000          0.150274E-03
      0.390000          0.151274E-03
      0.395000          0.152162E-03
      0.400000          0.152902E-03
      0.405000          0.153462E-03
      0.410000          0.153814E-03
      0.415000          0.153937E-03
      0.420000          0.153815E-03
      0.425000          0.153439E-03
      0.430000          0.152802E-03
      0.435000          0.151906E-03
      0.440000          0.150754E-03
      0.445000          0.149357E-03
      0.450000          0.147727E-03
      0.455000          0.145880E-03
      0.460000          0.143834E-03
      0.465000          0.141611E-03
      0.470000          0.139230E-03
      0.475000          0.136713E-03
      0.480000          0.134080E-03
      0.485000          0.131351E-03
      0.490000          0.128544E-03
      0.495000          0.125676E-03
      0.500000          0.122761E-03
