 I_abs(s)[cm^-1]/c[mg/ml]
       0.00000          0.144575E-01
      0.500000E-02      0.143990E-01
      0.100000E-01      0.142250E-01
      0.150000E-01      0.139395E-01
      0.200000E-01      0.135491E-01
      0.250000E-01      0.130629E-01
      0.300000E-01      0.124916E-01
      0.350000E-01      0.118479E-01
      0.400000E-01      0.111455E-01
      0.450000E-01      0.103989E-01
      0.500000E-01      0.962277E-02
      0.550000E-01      0.883172E-02
      0.600000E-01      0.803966E-02
      0.650000E-01      0.725952E-02
      0.700000E-01      0.650294E-02
      0.750000E-01      0.577996E-02
      0.800000E-01      0.509891E-02
      0.850000E-01      0.446627E-02
      0.900000E-01      0.388665E-02
      0.950000E-01      0.336284E-02
      0.100000          0.289594E-02
      0.105000          0.248547E-02
      0.110000          0.212964E-02
      0.115000          0.182552E-02
      0.120000          0.156930E-02
      0.125000          0.135656E-02
      0.130000          0.118247E-02
      0.135000          0.104204E-02
      0.140000          0.930286E-03
      0.145000          0.842425E-03
      0.150000          0.773981E-03
      0.155000          0.720890E-03
      0.160000          0.679562E-03
      0.165000          0.646911E-03
      0.170000          0.620364E-03
      0.175000          0.597839E-03
      0.180000          0.577712E-03
      0.185000          0.558773E-03
      0.190000          0.540167E-03
      0.195000          0.521339E-03
      0.200000          0.501980E-03
      0.205000          0.481966E-03
      0.210000          0.461319E-03
      0.215000          0.440158E-03
      0.220000          0.418669E-03
      0.225000          0.397076E-03
      0.230000          0.375620E-03
      0.235000          0.354540E-03
      0.240000          0.334070E-03
      0.245000          0.314421E-03
      0.250000          0.295785E-03
      0.255000          0.278325E-03
      0.260000          0.262174E-03
      0.265000          0.247436E-03
      0.270000          0.234182E-03
      0.275000          0.222450E-03
      0.280000          0.212243E-03
      0.285000          0.203533E-03
      0.290000          0.196259E-03
      0.295000          0.190330E-03
      0.300000          0.185628E-03
      0.305000          0.182014E-03
      0.310000          0.179331E-03
      0.315000          0.177411E-03
      0.320000          0.176082E-03
      0.325000          0.175173E-03
      0.330000          0.174523E-03
      0.335000          0.173985E-03
      0.340000          0.173430E-03
      0.345000          0.172755E-03
      0.350000          0.171880E-03
      0.355000          0.170753E-03
      0.360000          0.169347E-03
      0.365000          0.167662E-03
      0.370000          0.165716E-03
      0.375000          0.163548E-03
      0.380000          0.161209E-03
      0.385000          0.158757E-03
      0.390000          0.156255E-03
      0.395000          0.153764E-03
      0.400000          0.151340E-03
      0.405000          0.149030E-03
      0.410000          0.146871E-03
      0.415000          0.144885E-03
      0.420000          0.143084E-03
      0.425000          0.141462E-03
      0.430000          0.140005E-03
      0.435000          0.138687E-03
      0.440000          0.137474E-03
      0.445000          0.136326E-03
      0.450000          0.135200E-03
      0.455000          0.134052E-03
      0.460000          0.132843E-03
      0.465000          0.131534E-03
      0.470000          0.130095E-03
      0.475000          0.128503E-03
      0.480000          0.126741E-03
      0.485000          0.124802E-03
      0.490000          0.122688E-03
      0.495000          0.120404E-03
      0.500000          0.117967E-03
