 I_abs(s)[cm^-1]/c[mg/ml]
       0.00000          0.145050E-01
      0.500000E-02      0.144495E-01
      0.100000E-01      0.142845E-01
      0.150000E-01      0.140137E-01
      0.200000E-01      0.136433E-01
      0.250000E-01      0.131817E-01
      0.300000E-01      0.126392E-01
      0.350000E-01      0.120275E-01
      0.400000E-01      0.113596E-01
      0.450000E-01      0.106490E-01
      0.500000E-01      0.990961E-02
      0.550000E-01      0.915502E-02
      0.600000E-01      0.839832E-02
      0.650000E-01      0.765166E-02
      0.700000E-01      0.692591E-02
      0.750000E-01      0.623047E-02
      0.800000E-01      0.557310E-02
      0.850000E-01      0.495979E-02
      0.900000E-01      0.439476E-02
      0.950000E-01      0.388052E-02
      0.100000          0.341794E-02
      0.105000          0.300644E-02
      0.110000          0.264419E-02
      0.115000          0.232833E-02
      0.120000          0.205520E-02
      0.125000          0.182061E-02
      0.130000          0.162007E-02
      0.135000          0.144901E-02
      0.140000          0.130296E-02
      0.145000          0.117771E-02
      0.150000          0.106944E-02
      0.155000          0.974837E-03
      0.160000          0.891066E-03
      0.165000          0.815853E-03
      0.170000          0.747435E-03
      0.175000          0.684530E-03
      0.180000          0.626273E-03
      0.185000          0.572144E-03
      0.190000          0.521889E-03
      0.195000          0.475443E-03
      0.200000          0.432854E-03
      0.205000          0.394215E-03
      0.210000          0.359611E-03
      0.215000          0.329077E-03
      0.220000          0.302569E-03
      0.225000          0.279950E-03
      0.230000          0.260985E-03
      0.235000          0.245352E-03
      0.240000          0.232656E-03
      0.245000          0.222451E-03
      0.250000          0.214265E-03
      0.255000          0.207622E-03
      0.260000          0.202070E-03
      0.265000          0.197200E-03
      0.270000          0.192660E-03
      0.275000          0.188170E-03
      0.280000          0.183525E-03
      0.285000          0.178597E-03
      0.290000          0.173333E-03
      0.295000          0.167740E-03
      0.300000          0.161884E-03
      0.305000          0.155872E-03
      0.310000          0.149836E-03
      0.315000          0.143928E-03
      0.320000          0.138299E-03
      0.325000          0.133092E-03
      0.330000          0.128436E-03
      0.335000          0.124434E-03
      0.340000          0.121161E-03
      0.345000          0.118663E-03
      0.350000          0.116956E-03
      0.355000          0.116025E-03
      0.360000          0.115833E-03
      0.365000          0.116316E-03
      0.370000          0.117395E-03
      0.375000          0.118975E-03
      0.380000          0.120954E-03
      0.385000          0.123221E-03
      0.390000          0.125666E-03
      0.395000          0.128180E-03
      0.400000          0.130656E-03
      0.405000          0.132997E-03
      0.410000          0.135113E-03
      0.415000          0.136924E-03
      0.420000          0.138363E-03
      0.425000          0.139375E-03
      0.430000          0.139920E-03
      0.435000          0.139970E-03
      0.440000          0.139514E-03
      0.445000          0.138555E-03
      0.450000          0.137109E-03
      0.455000          0.135207E-03
      0.460000          0.132893E-03
      0.465000          0.130221E-03
      0.470000          0.127253E-03
      0.475000          0.124059E-03
      0.480000          0.120713E-03
      0.485000          0.117291E-03
      0.490000          0.113866E-03
      0.495000          0.110507E-03
      0.500000          0.107279E-03
