 I_abs(s)[cm^-1]/c[mg/ml]
       0.00000          0.136699E-01
      0.500000E-02      0.135265E-01
      0.100000E-01      0.131077E-01
      0.150000E-01      0.124467E-01
      0.200000E-01      0.115941E-01
      0.250000E-01      0.106118E-01
      0.300000E-01      0.956579E-02
      0.350000E-01      0.851904E-02
      0.400000E-01      0.752477E-02
      0.450000E-01      0.662209E-02
      0.500000E-01      0.583367E-02
      0.550000E-01      0.516585E-02
      0.600000E-01      0.461096E-02
      0.650000E-01      0.415117E-02
      0.700000E-01      0.376316E-02
      0.750000E-01      0.342291E-02
      0.800000E-01      0.310960E-02
      0.850000E-01      0.280839E-02
      0.900000E-01      0.251166E-02
      0.950000E-01      0.221873E-02
      0.100000          0.193446E-02
      0.105000          0.166701E-02
      0.110000          0.142537E-02
      0.115000          0.121719E-02
      0.120000          0.104711E-02
      0.125000          0.916036E-03
      0.130000          0.821114E-03
      0.135000          0.756526E-03
      0.140000          0.714677E-03
      0.145000          0.687551E-03
      0.150000          0.667959E-03
      0.155000          0.650428E-03
      0.160000          0.631645E-03
      0.165000          0.610433E-03
      0.170000          0.587339E-03
      0.175000          0.563981E-03
      0.180000          0.542329E-03
      0.185000          0.524064E-03
      0.190000          0.510134E-03
      0.195000          0.500559E-03
      0.200000          0.494485E-03
      0.205000          0.490426E-03
      0.210000          0.486615E-03
      0.215000          0.481369E-03
      0.220000          0.473399E-03
      0.225000          0.461989E-03
      0.230000          0.447053E-03
      0.235000          0.429063E-03
      0.240000          0.408879E-03
      0.245000          0.387552E-03
      0.250000          0.366110E-03
      0.255000          0.345408E-03
      0.260000          0.326020E-03
      0.265000          0.308219E-03
      0.270000          0.292005E-03
      0.275000          0.277183E-03
      0.280000          0.263449E-03
      0.285000          0.250487E-03
      0.290000          0.238032E-03
      0.295000          0.225918E-03
      0.300000          0.214087E-03
      0.305000          0.202584E-03
      0.310000          0.191524E-03
      0.315000          0.181062E-03
      0.320000          0.171354E-03
      0.325000          0.162532E-03
      0.330000          0.154682E-03
      0.335000          0.147836E-03
      0.340000          0.141969E-03
      0.345000          0.137011E-03
      0.350000          0.132854E-03
      0.355000          0.129374E-03
      0.360000          0.126446E-03
      0.365000          0.123959E-03
      0.370000          0.121830E-03
      0.375000          0.120008E-03
      0.380000          0.118476E-03
      0.385000          0.117239E-03
      0.390000          0.116315E-03
      0.395000          0.115715E-03
      0.400000          0.115430E-03
      0.405000          0.115413E-03
      0.410000          0.115578E-03
      0.415000          0.115804E-03
      0.420000          0.115945E-03
      0.425000          0.115853E-03
      0.430000          0.115403E-03
      0.435000          0.114511E-03
      0.440000          0.113151E-03
      0.445000          0.111364E-03
      0.450000          0.109248E-03
      0.455000          0.106944E-03
      0.460000          0.104609E-03
      0.465000          0.102390E-03
      0.470000          0.100399E-03
      0.475000          0.986916E-04
      0.480000          0.972644E-04
      0.485000          0.960566E-04
      0.490000          0.949673E-04
      0.495000          0.938778E-04
      0.500000          0.926776E-04
