 I_abs(s)[cm^-1]/c[mg/ml]
       0.00000          0.143864E-01
      0.500000E-02      0.142746E-01
      0.100000E-01      0.139447E-01
      0.150000E-01      0.134135E-01
      0.200000E-01      0.127072E-01
      0.250000E-01      0.118593E-01
      0.300000E-01      0.109081E-01
      0.350000E-01      0.989365E-02
      0.400000E-01      0.885496E-02
      0.450000E-01      0.782755E-02
      0.500000E-01      0.684152E-02
      0.550000E-01      0.592031E-02
      0.600000E-01      0.508025E-02
      0.650000E-01      0.433071E-02
      0.700000E-01      0.367484E-02
      0.750000E-01      0.311069E-02
      0.800000E-01      0.263252E-02
      0.850000E-01      0.223215E-02
      0.900000E-01      0.190015E-02
      0.950000E-01      0.162681E-02
      0.100000          0.140289E-02
      0.105000          0.122003E-02
      0.110000          0.107096E-02
      0.115000          0.949544E-03
      0.120000          0.850644E-03
      0.125000          0.770033E-03
      0.130000          0.704223E-03
      0.135000          0.650355E-03
      0.140000          0.606106E-03
      0.145000          0.569621E-03
      0.150000          0.539466E-03
      0.155000          0.514569E-03
      0.160000          0.494159E-03
      0.165000          0.477680E-03
      0.170000          0.464710E-03
      0.175000          0.454863E-03
      0.180000          0.447723E-03
      0.185000          0.442792E-03
      0.190000          0.439472E-03
      0.195000          0.437087E-03
      0.200000          0.434924E-03
      0.205000          0.432297E-03
      0.210000          0.428609E-03
      0.215000          0.423407E-03
      0.220000          0.416419E-03
      0.225000          0.407556E-03
      0.230000          0.396904E-03
      0.235000          0.384681E-03
      0.240000          0.371198E-03
      0.245000          0.356804E-03
      0.250000          0.341849E-03
      0.255000          0.326650E-03
      0.260000          0.311481E-03
      0.265000          0.296567E-03
      0.270000          0.282092E-03
      0.275000          0.268214E-03
      0.280000          0.255069E-03
      0.285000          0.242783E-03
      0.290000          0.231468E-03
      0.295000          0.221216E-03
      0.300000          0.212091E-03
      0.305000          0.204119E-03
      0.310000          0.197280E-03
      0.315000          0.191507E-03
      0.320000          0.186690E-03
      0.325000          0.182684E-03
      0.330000          0.179327E-03
      0.335000          0.176451E-03
      0.340000          0.173895E-03
      0.345000          0.171522E-03
      0.350000          0.169219E-03
      0.355000          0.166907E-03
      0.360000          0.164537E-03
      0.365000          0.162091E-03
      0.370000          0.159580E-03
      0.375000          0.157038E-03
      0.380000          0.154521E-03
      0.385000          0.152103E-03
      0.390000          0.149866E-03
      0.395000          0.147897E-03
      0.400000          0.146272E-03
      0.405000          0.145046E-03
      0.410000          0.144244E-03
      0.415000          0.143847E-03
      0.420000          0.143790E-03
      0.425000          0.143963E-03
      0.430000          0.144219E-03
      0.435000          0.144390E-03
      0.440000          0.144305E-03
      0.445000          0.143811E-03
      0.450000          0.142797E-03
      0.455000          0.141206E-03
      0.460000          0.139041E-03
      0.465000          0.136367E-03
      0.470000          0.133298E-03
      0.475000          0.129980E-03
      0.480000          0.126571E-03
      0.485000          0.123217E-03
      0.490000          0.120032E-03
      0.495000          0.117091E-03
      0.500000          0.114421E-03
