 I_abs(s)[cm^-1]/c[mg/ml]
       0.00000          0.143077E-01
      0.500000E-02      0.141919E-01
      0.100000E-01      0.138510E-01
      0.150000E-01      0.133035E-01
      0.200000E-01      0.125785E-01
      0.250000E-01      0.117130E-01
      0.300000E-01      0.107490E-01
      0.350000E-01      0.973028E-02
      0.400000E-01      0.869862E-02
      0.450000E-01      0.769139E-02
      0.500000E-01      0.673912E-02
      0.550000E-01      0.586422E-02
      0.600000E-01      0.508048E-02
      0.650000E-01      0.439350E-02
      0.700000E-01      0.380175E-02
      0.750000E-01      0.329823E-02
      0.800000E-01      0.287234E-02
      0.850000E-01      0.251173E-02
      0.900000E-01      0.220406E-02
      0.950000E-01      0.193823E-02
      0.100000          0.170531E-02
      0.105000          0.149887E-02
      0.110000          0.131493E-02
      0.115000          0.115157E-02
      0.120000          0.100824E-02
      0.125000          0.885167E-03
      0.130000          0.782594E-03
      0.135000          0.700338E-03
      0.140000          0.637441E-03
      0.145000          0.592082E-03
      0.150000          0.561664E-03
      0.155000          0.543057E-03
      0.160000          0.532919E-03
      0.165000          0.528032E-03
      0.170000          0.525595E-03
      0.175000          0.523425E-03
      0.180000          0.520055E-03
      0.185000          0.514722E-03
      0.190000          0.507258E-03
      0.195000          0.497931E-03
      0.200000          0.487249E-03
      0.205000          0.475779E-03
      0.210000          0.464004E-03
      0.215000          0.452229E-03
      0.220000          0.440545E-03
      0.225000          0.428848E-03
      0.230000          0.416900E-03
      0.235000          0.404406E-03
      0.240000          0.391094E-03
      0.245000          0.376789E-03
      0.250000          0.361458E-03
      0.255000          0.345223E-03
      0.260000          0.328351E-03
      0.265000          0.311220E-03
      0.270000          0.294268E-03
      0.275000          0.277941E-03
      0.280000          0.262643E-03
      0.285000          0.248699E-03
      0.290000          0.236329E-03
      0.295000          0.225640E-03
      0.300000          0.216635E-03
      0.305000          0.209226E-03
      0.310000          0.203260E-03
      0.315000          0.198541E-03
      0.320000          0.194851E-03
      0.325000          0.191974E-03
      0.330000          0.189704E-03
      0.335000          0.187858E-03
      0.340000          0.186277E-03
      0.345000          0.184826E-03
      0.350000          0.183396E-03
      0.355000          0.181904E-03
      0.360000          0.180286E-03
      0.365000          0.178504E-03
      0.370000          0.176537E-03
      0.375000          0.174391E-03
      0.380000          0.172088E-03
      0.385000          0.169668E-03
      0.390000          0.167183E-03
      0.395000          0.164695E-03
      0.400000          0.162264E-03
      0.405000          0.159941E-03
      0.410000          0.157766E-03
      0.415000          0.155755E-03
      0.420000          0.153898E-03
      0.425000          0.152158E-03
      0.430000          0.150475E-03
      0.435000          0.148766E-03
      0.440000          0.146940E-03
      0.445000          0.144901E-03
      0.450000          0.142567E-03
      0.455000          0.139877E-03
      0.460000          0.136800E-03
      0.465000          0.133345E-03
      0.470000          0.129560E-03
      0.475000          0.125528E-03
      0.480000          0.121364E-03
      0.485000          0.117197E-03
      0.490000          0.113163E-03
      0.495000          0.109385E-03
      0.500000          0.105964E-03
