 I_abs(s)[cm^-1]/c[mg/ml]
       0.00000          0.148235E-01
      0.500000E-02      0.147778E-01
      0.100000E-01      0.146416E-01
      0.150000E-01      0.144172E-01
      0.200000E-01      0.141085E-01
      0.250000E-01      0.137209E-01
      0.300000E-01      0.132609E-01
      0.350000E-01      0.127361E-01
      0.400000E-01      0.121552E-01
      0.450000E-01      0.115275E-01
      0.500000E-01      0.108625E-01
      0.550000E-01      0.101703E-01
      0.600000E-01      0.946078E-02
      0.650000E-01      0.874353E-02
      0.700000E-01      0.802782E-02
      0.750000E-01      0.732224E-02
      0.800000E-01      0.663461E-02
      0.850000E-01      0.597182E-02
      0.900000E-01      0.533980E-02
      0.950000E-01      0.474337E-02
      0.100000          0.418630E-02
      0.105000          0.367126E-02
      0.110000          0.319988E-02
      0.115000          0.277280E-02
      0.120000          0.238978E-02
      0.125000          0.204974E-02
      0.130000          0.175096E-02
      0.135000          0.149114E-02
      0.140000          0.126753E-02
      0.145000          0.107711E-02
      0.150000          0.916620E-03
      0.155000          0.782758E-03
      0.160000          0.672219E-03
      0.165000          0.581809E-03
      0.170000          0.508503E-03
      0.175000          0.449508E-03
      0.180000          0.402295E-03
      0.185000          0.364626E-03
      0.190000          0.334566E-03
      0.195000          0.310476E-03
      0.200000          0.291005E-03
      0.205000          0.275068E-03
      0.210000          0.261818E-03
      0.215000          0.250616E-03
      0.220000          0.240999E-03
      0.225000          0.232644E-03
      0.230000          0.225337E-03
      0.235000          0.218945E-03
      0.240000          0.213387E-03
      0.245000          0.208613E-03
      0.250000          0.204584E-03
      0.255000          0.201262E-03
      0.260000          0.198598E-03
      0.265000          0.196528E-03
      0.270000          0.194969E-03
      0.275000          0.193823E-03
      0.280000          0.192978E-03
      0.285000          0.192315E-03
      0.290000          0.191709E-03
      0.295000          0.191039E-03
      0.300000          0.190194E-03
      0.305000          0.189075E-03
      0.310000          0.187601E-03
      0.315000          0.185710E-03
      0.320000          0.183366E-03
      0.325000          0.180553E-03
      0.330000          0.177278E-03
      0.335000          0.173568E-03
      0.340000          0.169470E-03
      0.345000          0.165042E-03
      0.350000          0.160355E-03
      0.355000          0.155489E-03
      0.360000          0.150523E-03
      0.365000          0.145538E-03
      0.370000          0.140611E-03
      0.375000          0.135812E-03
      0.380000          0.131202E-03
      0.385000          0.126833E-03
      0.390000          0.122743E-03
      0.395000          0.118960E-03
      0.400000          0.115501E-03
      0.405000          0.112371E-03
      0.410000          0.109566E-03
      0.415000          0.107074E-03
      0.420000          0.104877E-03
      0.425000          0.102949E-03
      0.430000          0.101265E-03
      0.435000          0.997970E-04
      0.440000          0.985160E-04
      0.445000          0.973953E-04
      0.450000          0.964100E-04
      0.455000          0.955380E-04
      0.460000          0.947608E-04
      0.465000          0.940630E-04
      0.470000          0.934327E-04
      0.475000          0.928611E-04
      0.480000          0.923417E-04
      0.485000          0.918703E-04
      0.490000          0.914437E-04
      0.495000          0.910597E-04
      0.500000          0.907159E-04
