 I_abs(s)[cm^-1]/c[mg/ml]
       0.00000          0.132767E-01
      0.500000E-02      0.131828E-01
      0.100000E-01      0.129051E-01
      0.150000E-01      0.124558E-01
      0.200000E-01      0.118541E-01
      0.250000E-01      0.111252E-01
      0.300000E-01      0.102985E-01
      0.350000E-01      0.940557E-02
      0.400000E-01      0.847879E-02
      0.450000E-01      0.754897E-02
      0.500000E-01      0.664398E-02
      0.550000E-01      0.578744E-02
      0.600000E-01      0.499785E-02
      0.650000E-01      0.428810E-02
      0.700000E-01      0.366554E-02
      0.750000E-01      0.313231E-02
      0.800000E-01      0.268604E-02
      0.850000E-01      0.232073E-02
      0.900000E-01      0.202780E-02
      0.950000E-01      0.179707E-02
      0.100000          0.161779E-02
      0.105000          0.147938E-02
      0.110000          0.137211E-02
      0.115000          0.128753E-02
      0.120000          0.121867E-02
      0.125000          0.116012E-02
      0.130000          0.110791E-02
      0.135000          0.105937E-02
      0.140000          0.101281E-02
      0.145000          0.967350E-03
      0.150000          0.922604E-03
      0.155000          0.878520E-03
      0.160000          0.835214E-03
      0.165000          0.792872E-03
      0.170000          0.751699E-03
      0.175000          0.711893E-03
      0.180000          0.673652E-03
      0.185000          0.637180E-03
      0.190000          0.602694E-03
      0.195000          0.570421E-03
      0.200000          0.540589E-03
      0.205000          0.513398E-03
      0.210000          0.488997E-03
      0.215000          0.467452E-03
      0.220000          0.448725E-03
      0.225000          0.432662E-03
      0.230000          0.418993E-03
      0.235000          0.407352E-03
      0.240000          0.397305E-03
      0.245000          0.388385E-03
      0.250000          0.380141E-03
      0.255000          0.372176E-03
      0.260000          0.364177E-03
      0.265000          0.355949E-03
      0.270000          0.347413E-03
      0.275000          0.338613E-03
      0.280000          0.329688E-03
      0.285000          0.320852E-03
      0.290000          0.312355E-03
      0.295000          0.304446E-03
      0.300000          0.297336E-03
      0.305000          0.291174E-03
      0.310000          0.286020E-03
      0.315000          0.281844E-03
      0.320000          0.278523E-03
      0.325000          0.275859E-03
      0.330000          0.273597E-03
      0.335000          0.271458E-03
      0.340000          0.269167E-03
      0.345000          0.266482E-03
      0.350000          0.263219E-03
      0.355000          0.259266E-03
      0.360000          0.254596E-03
      0.365000          0.249262E-03
      0.370000          0.243385E-03
      0.375000          0.237142E-03
      0.380000          0.230736E-03
      0.385000          0.224378E-03
      0.390000          0.218257E-03
      0.395000          0.212526E-03
      0.400000          0.207283E-03
      0.405000          0.202567E-03
      0.410000          0.198355E-03
      0.415000          0.194577E-03
      0.420000          0.191123E-03
      0.425000          0.187861E-03
      0.430000          0.184659E-03
      0.435000          0.181401E-03
      0.440000          0.177998E-03
      0.445000          0.174399E-03
      0.450000          0.170593E-03
      0.455000          0.166607E-03
      0.460000          0.162498E-03
      0.465000          0.158337E-03
      0.470000          0.154203E-03
      0.475000          0.150164E-03
      0.480000          0.146270E-03
      0.485000          0.142544E-03
      0.490000          0.138980E-03
      0.495000          0.135546E-03
      0.500000          0.132188E-03
