 I_abs(s)[cm^-1]/c[mg/ml]
       0.00000          0.142503E-01
      0.500000E-02      0.142036E-01
      0.100000E-01      0.140646E-01
      0.150000E-01      0.138363E-01
      0.200000E-01      0.135234E-01
      0.250000E-01      0.131324E-01
      0.300000E-01      0.126714E-01
      0.350000E-01      0.121494E-01
      0.400000E-01      0.115766E-01
      0.450000E-01      0.109637E-01
      0.500000E-01      0.103214E-01
      0.550000E-01      0.966056E-02
      0.600000E-01      0.899169E-02
      0.650000E-01      0.832454E-02
      0.700000E-01      0.766802E-02
      0.750000E-01      0.703000E-02
      0.800000E-01      0.641714E-02
      0.850000E-01      0.583485E-02
      0.900000E-01      0.528724E-02
      0.950000E-01      0.477717E-02
      0.100000          0.430627E-02
      0.105000          0.387509E-02
      0.110000          0.348320E-02
      0.115000          0.312934E-02
      0.120000          0.281159E-02
      0.125000          0.252753E-02
      0.130000          0.227440E-02
      0.135000          0.204926E-02
      0.140000          0.184908E-02
      0.145000          0.167090E-02
      0.150000          0.151190E-02
      0.155000          0.136950E-02
      0.160000          0.124136E-02
      0.165000          0.112543E-02
      0.170000          0.101999E-02
      0.175000          0.923614E-03
      0.180000          0.835143E-03
      0.185000          0.753687E-03
      0.190000          0.678577E-03
      0.195000          0.609326E-03
      0.200000          0.545597E-03
      0.205000          0.487158E-03
      0.210000          0.433853E-03
      0.215000          0.385570E-03
      0.220000          0.342212E-03
      0.225000          0.303675E-03
      0.230000          0.269837E-03
      0.235000          0.240539E-03
      0.240000          0.215586E-03
      0.245000          0.194739E-03
      0.250000          0.177719E-03
      0.255000          0.164210E-03
      0.260000          0.153867E-03
      0.265000          0.146323E-03
      0.270000          0.141200E-03
      0.275000          0.138115E-03
      0.280000          0.136694E-03
      0.285000          0.136578E-03
      0.290000          0.137430E-03
      0.295000          0.138945E-03
      0.300000          0.140852E-03
      0.305000          0.142917E-03
      0.310000          0.144949E-03
      0.315000          0.146794E-03
      0.320000          0.148337E-03
      0.325000          0.149502E-03
      0.330000          0.150241E-03
      0.335000          0.150537E-03
      0.340000          0.150393E-03
      0.345000          0.149833E-03
      0.350000          0.148893E-03
      0.355000          0.147615E-03
      0.360000          0.146051E-03
      0.365000          0.144249E-03
      0.370000          0.142258E-03
      0.375000          0.140126E-03
      0.380000          0.137893E-03
      0.385000          0.135599E-03
      0.390000          0.133275E-03
      0.395000          0.130951E-03
      0.400000          0.128653E-03
      0.405000          0.126406E-03
      0.410000          0.124231E-03
      0.415000          0.122147E-03
      0.420000          0.120176E-03
      0.425000          0.118334E-03
      0.430000          0.116639E-03
      0.435000          0.115106E-03
      0.440000          0.113748E-03
      0.445000          0.112575E-03
      0.450000          0.111591E-03
      0.455000          0.110798E-03
      0.460000          0.110190E-03
      0.465000          0.109758E-03
      0.470000          0.109485E-03
      0.475000          0.109350E-03
      0.480000          0.109326E-03
      0.485000          0.109382E-03
      0.490000          0.109484E-03
      0.495000          0.109597E-03
      0.500000          0.109685E-03
