 I_abs(s)[cm^-1]/c[mg/ml]
       0.00000          0.142660E-01
      0.500000E-02      0.142105E-01
      0.100000E-01      0.140455E-01
      0.150000E-01      0.137750E-01
      0.200000E-01      0.134057E-01
      0.250000E-01      0.129466E-01
      0.300000E-01      0.124087E-01
      0.350000E-01      0.118044E-01
      0.400000E-01      0.111472E-01
      0.450000E-01      0.104511E-01
      0.500000E-01      0.973020E-02
      0.550000E-01      0.899814E-02
      0.600000E-01      0.826777E-02
      0.650000E-01      0.755071E-02
      0.700000E-01      0.685713E-02
      0.750000E-01      0.619549E-02
      0.800000E-01      0.557248E-02
      0.850000E-01      0.499295E-02
      0.900000E-01      0.446000E-02
      0.950000E-01      0.397508E-02
      0.100000          0.353816E-02
      0.105000          0.314795E-02
      0.110000          0.280215E-02
      0.115000          0.249770E-02
      0.120000          0.223100E-02
      0.125000          0.199819E-02
      0.130000          0.179531E-02
      0.135000          0.161848E-02
      0.140000          0.146407E-02
      0.145000          0.132873E-02
      0.150000          0.120952E-02
      0.155000          0.110390E-02
      0.160000          0.100973E-02
      0.165000          0.925266E-03
      0.170000          0.849098E-03
      0.175000          0.780118E-03
      0.180000          0.717459E-03
      0.185000          0.660444E-03
      0.190000          0.608537E-03
      0.195000          0.561299E-03
      0.200000          0.518355E-03
      0.205000          0.479371E-03
      0.210000          0.444030E-03
      0.215000          0.412030E-03
      0.220000          0.383074E-03
      0.225000          0.356873E-03
      0.230000          0.333150E-03
      0.235000          0.311641E-03
      0.240000          0.292103E-03
      0.245000          0.274313E-03
      0.250000          0.258079E-03
      0.255000          0.243229E-03
      0.260000          0.229623E-03
      0.265000          0.217142E-03
      0.270000          0.205688E-03
      0.275000          0.195183E-03
      0.280000          0.185565E-03
      0.285000          0.176780E-03
      0.290000          0.168787E-03
      0.295000          0.161550E-03
      0.300000          0.155038E-03
      0.305000          0.149223E-03
      0.310000          0.144080E-03
      0.315000          0.139587E-03
      0.320000          0.135719E-03
      0.325000          0.132456E-03
      0.330000          0.129774E-03
      0.335000          0.127648E-03
      0.340000          0.126053E-03
      0.345000          0.124956E-03
      0.350000          0.124322E-03
      0.355000          0.124111E-03
      0.360000          0.124275E-03
      0.365000          0.124762E-03
      0.370000          0.125514E-03
      0.375000          0.126467E-03
      0.380000          0.127557E-03
      0.385000          0.128716E-03
      0.390000          0.129878E-03
      0.395000          0.130979E-03
      0.400000          0.131959E-03
      0.405000          0.132767E-03
      0.410000          0.133360E-03
      0.415000          0.133702E-03
      0.420000          0.133770E-03
      0.425000          0.133552E-03
      0.430000          0.133043E-03
      0.435000          0.132252E-03
      0.440000          0.131192E-03
      0.445000          0.129887E-03
      0.450000          0.128362E-03
      0.455000          0.126647E-03
      0.460000          0.124775E-03
      0.465000          0.122778E-03
      0.470000          0.120684E-03
      0.475000          0.118523E-03
      0.480000          0.116318E-03
      0.485000          0.114092E-03
      0.490000          0.111862E-03
      0.495000          0.109643E-03
      0.500000          0.107446E-03
