 I_abs(s)[cm^-1]/c[mg/ml]
       0.00000          0.140232E-01
      0.500000E-02      0.139744E-01
      0.100000E-01      0.138291E-01
      0.150000E-01      0.135907E-01
      0.200000E-01      0.132644E-01
      0.250000E-01      0.128576E-01
      0.300000E-01      0.123789E-01
      0.350000E-01      0.118387E-01
      0.400000E-01      0.112479E-01
      0.450000E-01      0.106182E-01
      0.500000E-01      0.996171E-02
      0.550000E-01      0.929004E-02
      0.600000E-01      0.861450E-02
      0.650000E-01      0.794555E-02
      0.700000E-01      0.729260E-02
      0.750000E-01      0.666378E-02
      0.800000E-01      0.606580E-02
      0.850000E-01      0.550388E-02
      0.900000E-01      0.498172E-02
      0.950000E-01      0.450154E-02
      0.100000          0.406419E-02
      0.105000          0.366926E-02
      0.110000          0.331528E-02
      0.115000          0.299989E-02
      0.120000          0.272007E-02
      0.125000          0.247235E-02
      0.130000          0.225299E-02
      0.135000          0.205820E-02
      0.140000          0.188429E-02
      0.145000          0.172780E-02
      0.150000          0.158564E-02
      0.155000          0.145513E-02
      0.160000          0.133406E-02
      0.165000          0.122068E-02
      0.170000          0.111374E-02
      0.175000          0.101239E-02
      0.180000          0.916172E-03
      0.185000          0.824921E-03
      0.190000          0.738722E-03
      0.195000          0.657819E-03
      0.200000          0.582548E-03
      0.205000          0.513268E-03
      0.210000          0.450312E-03
      0.215000          0.393931E-03
      0.220000          0.344270E-03
      0.225000          0.301341E-03
      0.230000          0.265016E-03
      0.235000          0.235030E-03
      0.240000          0.210988E-03
      0.245000          0.192385E-03
      0.250000          0.178629E-03
      0.255000          0.169070E-03
      0.260000          0.163021E-03
      0.265000          0.159794E-03
      0.270000          0.158716E-03
      0.275000          0.159159E-03
      0.280000          0.160553E-03
      0.285000          0.162401E-03
      0.290000          0.164286E-03
      0.295000          0.165880E-03
      0.300000          0.166938E-03
      0.305000          0.167298E-03
      0.310000          0.166874E-03
      0.315000          0.165646E-03
      0.320000          0.163648E-03
      0.325000          0.160959E-03
      0.330000          0.157691E-03
      0.335000          0.153977E-03
      0.340000          0.149958E-03
      0.345000          0.145780E-03
      0.350000          0.141580E-03
      0.355000          0.137483E-03
      0.360000          0.133596E-03
      0.365000          0.130006E-03
      0.370000          0.126778E-03
      0.375000          0.123956E-03
      0.380000          0.121561E-03
      0.385000          0.119594E-03
      0.390000          0.118042E-03
      0.395000          0.116874E-03
      0.400000          0.116050E-03
      0.405000          0.115522E-03
      0.410000          0.115237E-03
      0.415000          0.115138E-03
      0.420000          0.115171E-03
      0.425000          0.115285E-03
      0.430000          0.115430E-03
      0.435000          0.115566E-03
      0.440000          0.115658E-03
      0.445000          0.115677E-03
      0.450000          0.115603E-03
      0.455000          0.115423E-03
      0.460000          0.115130E-03
      0.465000          0.114723E-03
      0.470000          0.114208E-03
      0.475000          0.113593E-03
      0.480000          0.112889E-03
      0.485000          0.112110E-03
      0.490000          0.111273E-03
      0.495000          0.110393E-03
      0.500000          0.109484E-03
