 I_abs(s)[cm^-1]/c[mg/ml]
       0.00000          0.140544E-01
      0.500000E-02      0.140023E-01
      0.100000E-01      0.138475E-01
      0.150000E-01      0.135937E-01
      0.200000E-01      0.132469E-01
      0.250000E-01      0.128156E-01
      0.300000E-01      0.123096E-01
      0.350000E-01      0.117404E-01
      0.400000E-01      0.111205E-01
      0.450000E-01      0.104628E-01
      0.500000E-01      0.978018E-02
      0.550000E-01      0.908535E-02
      0.600000E-01      0.839019E-02
      0.650000E-01      0.770552E-02
      0.700000E-01      0.704080E-02
      0.750000E-01      0.640398E-02
      0.800000E-01      0.580138E-02
      0.850000E-01      0.523763E-02
      0.900000E-01      0.471577E-02
      0.950000E-01      0.423730E-02
      0.100000          0.380237E-02
      0.105000          0.340998E-02
      0.110000          0.305816E-02
      0.115000          0.274426E-02
      0.120000          0.246514E-02
      0.125000          0.221739E-02
      0.130000          0.199753E-02
      0.135000          0.180216E-02
      0.140000          0.162810E-02
      0.145000          0.147246E-02
      0.150000          0.133273E-02
      0.155000          0.120675E-02
      0.160000          0.109276E-02
      0.165000          0.989354E-03
      0.170000          0.895417E-03
      0.175000          0.810103E-03
      0.180000          0.732762E-03
      0.185000          0.662891E-03
      0.190000          0.600075E-03
      0.195000          0.543948E-03
      0.200000          0.494159E-03
      0.205000          0.450341E-03
      0.210000          0.412103E-03
      0.215000          0.379021E-03
      0.220000          0.350639E-03
      0.225000          0.326479E-03
      0.230000          0.306046E-03
      0.235000          0.288850E-03
      0.240000          0.274409E-03
      0.245000          0.262270E-03
      0.250000          0.252013E-03
      0.255000          0.243261E-03
      0.260000          0.235684E-03
      0.265000          0.228998E-03
      0.270000          0.222968E-03
      0.275000          0.217404E-03
      0.280000          0.212152E-03
      0.285000          0.207097E-03
      0.290000          0.202151E-03
      0.295000          0.197247E-03
      0.300000          0.192343E-03
      0.305000          0.187408E-03
      0.310000          0.182425E-03
      0.315000          0.177387E-03
      0.320000          0.172298E-03
      0.325000          0.167170E-03
      0.330000          0.162021E-03
      0.335000          0.156880E-03
      0.340000          0.151781E-03
      0.345000          0.146768E-03
      0.350000          0.141888E-03
      0.355000          0.137194E-03
      0.360000          0.132738E-03
      0.365000          0.128576E-03
      0.370000          0.124759E-03
      0.375000          0.121333E-03
      0.380000          0.118335E-03
      0.385000          0.115795E-03
      0.390000          0.113728E-03
      0.395000          0.112135E-03
      0.400000          0.111007E-03
      0.405000          0.110317E-03
      0.410000          0.110027E-03
      0.415000          0.110088E-03
      0.420000          0.110440E-03
      0.425000          0.111017E-03
      0.430000          0.111751E-03
      0.435000          0.112571E-03
      0.440000          0.113408E-03
      0.445000          0.114200E-03
      0.450000          0.114893E-03
      0.455000          0.115441E-03
      0.460000          0.115809E-03
      0.465000          0.115977E-03
      0.470000          0.115935E-03
      0.475000          0.115683E-03
      0.480000          0.115235E-03
      0.485000          0.114609E-03
      0.490000          0.113833E-03
      0.495000          0.112938E-03
      0.500000          0.111956E-03
