 I_abs(s)[cm^-1]/c[mg/ml]
       0.00000          0.141091E-01
      0.500000E-02      0.140540E-01
      0.100000E-01      0.138901E-01
      0.150000E-01      0.136216E-01
      0.200000E-01      0.132552E-01
      0.250000E-01      0.127997E-01
      0.300000E-01      0.122663E-01
      0.350000E-01      0.116672E-01
      0.400000E-01      0.110160E-01
      0.450000E-01      0.103267E-01
      0.500000E-01      0.961337E-02
      0.550000E-01      0.888963E-02
      0.600000E-01      0.816825E-02
      0.650000E-01      0.746082E-02
      0.700000E-01      0.677739E-02
      0.750000E-01      0.612635E-02
      0.800000E-01      0.551423E-02
      0.850000E-01      0.494576E-02
      0.900000E-01      0.442384E-02
      0.950000E-01      0.394973E-02
      0.100000          0.352320E-02
      0.105000          0.314275E-02
      0.110000          0.280586E-02
      0.115000          0.250926E-02
      0.120000          0.224919E-02
      0.125000          0.202161E-02
      0.130000          0.182246E-02
      0.135000          0.164779E-02
      0.140000          0.149396E-02
      0.145000          0.135769E-02
      0.150000          0.123615E-02
      0.155000          0.112699E-02
      0.160000          0.102829E-02
      0.165000          0.938610E-03
      0.170000          0.856861E-03
      0.175000          0.782282E-03
      0.180000          0.714361E-03
      0.185000          0.652765E-03
      0.190000          0.597272E-03
      0.195000          0.547714E-03
      0.200000          0.503928E-03
      0.205000          0.465721E-03
      0.210000          0.432843E-03
      0.215000          0.404977E-03
      0.220000          0.381735E-03
      0.225000          0.362664E-03
      0.230000          0.347256E-03
      0.235000          0.334972E-03
      0.240000          0.325254E-03
      0.245000          0.317548E-03
      0.250000          0.311325E-03
      0.255000          0.306093E-03
      0.260000          0.301414E-03
      0.265000          0.296912E-03
      0.270000          0.292279E-03
      0.275000          0.287276E-03
      0.280000          0.281736E-03
      0.285000          0.275551E-03
      0.290000          0.268675E-03
      0.295000          0.261110E-03
      0.300000          0.252897E-03
      0.305000          0.244111E-03
      0.310000          0.234849E-03
      0.315000          0.225223E-03
      0.320000          0.215354E-03
      0.325000          0.205364E-03
      0.330000          0.195374E-03
      0.335000          0.185499E-03
      0.340000          0.175849E-03
      0.345000          0.166523E-03
      0.350000          0.157613E-03
      0.355000          0.149198E-03
      0.360000          0.141350E-03
      0.365000          0.134129E-03
      0.370000          0.127586E-03
      0.375000          0.121759E-03
      0.380000          0.116675E-03
      0.385000          0.112346E-03
      0.390000          0.108772E-03
      0.395000          0.105941E-03
      0.400000          0.103821E-03
      0.405000          0.102371E-03
      0.410000          0.101534E-03
      0.415000          0.101241E-03
      0.420000          0.101413E-03
      0.425000          0.101962E-03
      0.430000          0.102798E-03
      0.435000          0.103825E-03
      0.440000          0.104954E-03
      0.445000          0.106096E-03
      0.450000          0.107173E-03
      0.455000          0.108117E-03
      0.460000          0.108873E-03
      0.465000          0.109401E-03
      0.470000          0.109675E-03
      0.475000          0.109684E-03
      0.480000          0.109433E-03
      0.485000          0.108938E-03
      0.490000          0.108227E-03
      0.495000          0.107337E-03
      0.500000          0.106310E-03
