 I_abs(s)[cm^-1]/c[mg/ml]
       0.00000          0.139064E-01
      0.500000E-02      0.138525E-01
      0.100000E-01      0.136922E-01
      0.150000E-01      0.134298E-01
      0.200000E-01      0.130723E-01
      0.250000E-01      0.126287E-01
      0.300000E-01      0.121104E-01
      0.350000E-01      0.115300E-01
      0.400000E-01      0.109010E-01
      0.450000E-01      0.102376E-01
      0.500000E-01      0.955361E-02
      0.550000E-01      0.886249E-02
      0.600000E-01      0.817653E-02
      0.650000E-01      0.750667E-02
      0.700000E-01      0.686222E-02
      0.750000E-01      0.625064E-02
      0.800000E-01      0.567753E-02
      0.850000E-01      0.514659E-02
      0.900000E-01      0.465977E-02
      0.950000E-01      0.421743E-02
      0.100000          0.381854E-02
      0.105000          0.346099E-02
      0.110000          0.314183E-02
      0.115000          0.285756E-02
      0.120000          0.260442E-02
      0.125000          0.237854E-02
      0.130000          0.217625E-02
      0.135000          0.199413E-02
      0.140000          0.182916E-02
      0.145000          0.167877E-02
      0.150000          0.154086E-02
      0.155000          0.141379E-02
      0.160000          0.129633E-02
      0.165000          0.118759E-02
      0.170000          0.108695E-02
      0.175000          0.994021E-03
      0.180000          0.908503E-03
      0.185000          0.830178E-03
      0.190000          0.758834E-03
      0.195000          0.694227E-03
      0.200000          0.636062E-03
      0.205000          0.583976E-03
      0.210000          0.537541E-03
      0.215000          0.496276E-03
      0.220000          0.459658E-03
      0.225000          0.427148E-03
      0.230000          0.398209E-03
      0.235000          0.372327E-03
      0.240000          0.349029E-03
      0.245000          0.327894E-03
      0.250000          0.308567E-03
      0.255000          0.290755E-03
      0.260000          0.274233E-03
      0.265000          0.258836E-03
      0.270000          0.244453E-03
      0.275000          0.231015E-03
      0.280000          0.218489E-03
      0.285000          0.206860E-03
      0.290000          0.196129E-03
      0.295000          0.186298E-03
      0.300000          0.177367E-03
      0.305000          0.169324E-03
      0.310000          0.162149E-03
      0.315000          0.155805E-03
      0.320000          0.150243E-03
      0.325000          0.145399E-03
      0.330000          0.141205E-03
      0.335000          0.137581E-03
      0.340000          0.134448E-03
      0.345000          0.131725E-03
      0.350000          0.129338E-03
      0.355000          0.127216E-03
      0.360000          0.125300E-03
      0.365000          0.123538E-03
      0.370000          0.121894E-03
      0.375000          0.120337E-03
      0.380000          0.118852E-03
      0.385000          0.117432E-03
      0.390000          0.116076E-03
      0.395000          0.114792E-03
      0.400000          0.113591E-03
      0.405000          0.112488E-03
      0.410000          0.111496E-03
      0.415000          0.110628E-03
      0.420000          0.109895E-03
      0.425000          0.109302E-03
      0.430000          0.108851E-03
      0.435000          0.108538E-03
      0.440000          0.108351E-03
      0.445000          0.108277E-03
      0.450000          0.108295E-03
      0.455000          0.108381E-03
      0.460000          0.108507E-03
      0.465000          0.108645E-03
      0.470000          0.108765E-03
      0.475000          0.108838E-03
      0.480000          0.108838E-03
      0.485000          0.108741E-03
      0.490000          0.108526E-03
      0.495000          0.108179E-03
      0.500000          0.107691E-03
