 I_abs(s)[cm^-1]/c[mg/ml]
       0.00000          0.143290E-01
      0.500000E-02      0.142851E-01
      0.100000E-01      0.141540E-01
      0.150000E-01      0.139384E-01
      0.200000E-01      0.136424E-01
      0.250000E-01      0.132715E-01
      0.300000E-01      0.128326E-01
      0.350000E-01      0.123337E-01
      0.400000E-01      0.117837E-01
      0.450000E-01      0.111918E-01
      0.500000E-01      0.105680E-01
      0.550000E-01      0.992208E-02
      0.600000E-01      0.926369E-02
      0.650000E-01      0.860213E-02
      0.700000E-01      0.794602E-02
      0.750000E-01      0.730322E-02
      0.800000E-01      0.668065E-02
      0.850000E-01      0.608416E-02
      0.900000E-01      0.551852E-02
      0.950000E-01      0.498737E-02
      0.100000          0.449324E-02
      0.105000          0.403762E-02
      0.110000          0.362099E-02
      0.115000          0.324298E-02
      0.120000          0.290245E-02
      0.125000          0.259765E-02
      0.130000          0.232634E-02
      0.135000          0.208594E-02
      0.140000          0.187362E-02
      0.145000          0.168649E-02
      0.150000          0.152164E-02
      0.155000          0.137628E-02
      0.160000          0.124779E-02
      0.165000          0.113376E-02
      0.170000          0.103204E-02
      0.175000          0.940787E-03
      0.180000          0.858417E-03
      0.185000          0.783635E-03
      0.190000          0.715399E-03
      0.195000          0.652899E-03
      0.200000          0.595521E-03
      0.205000          0.542817E-03
      0.210000          0.494464E-03
      0.215000          0.450232E-03
      0.220000          0.409955E-03
      0.225000          0.373499E-03
      0.230000          0.340743E-03
      0.235000          0.311560E-03
      0.240000          0.285804E-03
      0.245000          0.263303E-03
      0.250000          0.243856E-03
      0.255000          0.227233E-03
      0.260000          0.213178E-03
      0.265000          0.201417E-03
      0.270000          0.191664E-03
      0.275000          0.183627E-03
      0.280000          0.177021E-03
      0.285000          0.171572E-03
      0.290000          0.167025E-03
      0.295000          0.163151E-03
      0.300000          0.159750E-03
      0.305000          0.156653E-03
      0.310000          0.153725E-03
      0.315000          0.150866E-03
      0.320000          0.148006E-03
      0.325000          0.145105E-03
      0.330000          0.142148E-03
      0.335000          0.139142E-03
      0.340000          0.136113E-03
      0.345000          0.133098E-03
      0.350000          0.130140E-03
      0.355000          0.127290E-03
      0.360000          0.124593E-03
      0.365000          0.122094E-03
      0.370000          0.119831E-03
      0.375000          0.117831E-03
      0.380000          0.116112E-03
      0.385000          0.114682E-03
      0.390000          0.113536E-03
      0.395000          0.112661E-03
      0.400000          0.112032E-03
      0.405000          0.111618E-03
      0.410000          0.111381E-03
      0.415000          0.111278E-03
      0.420000          0.111265E-03
      0.425000          0.111298E-03
      0.430000          0.111330E-03
      0.435000          0.111323E-03
      0.440000          0.111238E-03
      0.445000          0.111044E-03
      0.450000          0.110715E-03
      0.455000          0.110232E-03
      0.460000          0.109583E-03
      0.465000          0.108762E-03
      0.470000          0.107768E-03
      0.475000          0.106609E-03
      0.480000          0.105295E-03
      0.485000          0.103842E-03
      0.490000          0.102269E-03
      0.495000          0.100598E-03
      0.500000          0.988518E-04
