 I_abs(s)[cm^-1]/c[mg/ml]
       0.00000          0.143054E-01
      0.500000E-02      0.142512E-01
      0.100000E-01      0.140899E-01
      0.150000E-01      0.138252E-01
      0.200000E-01      0.134631E-01
      0.250000E-01      0.130118E-01
      0.300000E-01      0.124811E-01
      0.350000E-01      0.118826E-01
      0.400000E-01      0.112286E-01
      0.450000E-01      0.105324E-01
      0.500000E-01      0.980712E-02
      0.550000E-01      0.906603E-02
      0.600000E-01      0.832170E-02
      0.650000E-01      0.758580E-02
      0.700000E-01      0.686885E-02
      0.750000E-01      0.617994E-02
      0.800000E-01      0.552664E-02
      0.850000E-01      0.491491E-02
      0.900000E-01      0.434904E-02
      0.950000E-01      0.383178E-02
      0.100000          0.336439E-02
      0.105000          0.294678E-02
      0.110000          0.257771E-02
      0.115000          0.225501E-02
      0.120000          0.197571E-02
      0.125000          0.173632E-02
      0.130000          0.153300E-02
      0.135000          0.136172E-02
      0.140000          0.121845E-02
      0.145000          0.109925E-02
      0.150000          0.100042E-02
      0.155000          0.918526E-03
      0.160000          0.850491E-03
      0.165000          0.793603E-03
      0.170000          0.745526E-03
      0.175000          0.704293E-03
      0.180000          0.668283E-03
      0.185000          0.636194E-03
      0.190000          0.607007E-03
      0.195000          0.579947E-03
      0.200000          0.554449E-03
      0.205000          0.530118E-03
      0.210000          0.506699E-03
      0.215000          0.484040E-03
      0.220000          0.462073E-03
      0.225000          0.440785E-03
      0.230000          0.420200E-03
      0.235000          0.400366E-03
      0.240000          0.381336E-03
      0.245000          0.363165E-03
      0.250000          0.345899E-03
      0.255000          0.329570E-03
      0.260000          0.314196E-03
      0.265000          0.299777E-03
      0.270000          0.286298E-03
      0.275000          0.273730E-03
      0.280000          0.262032E-03
      0.285000          0.251157E-03
      0.290000          0.241055E-03
      0.295000          0.231673E-03
      0.300000          0.222964E-03
      0.305000          0.214884E-03
      0.310000          0.207400E-03
      0.315000          0.200482E-03
      0.320000          0.194111E-03
      0.325000          0.188272E-03
      0.330000          0.182955E-03
      0.335000          0.178151E-03
      0.340000          0.173851E-03
      0.345000          0.170041E-03
      0.350000          0.166701E-03
      0.355000          0.163805E-03
      0.360000          0.161316E-03
      0.365000          0.159189E-03
      0.370000          0.157373E-03
      0.375000          0.155807E-03
      0.380000          0.154430E-03
      0.385000          0.153176E-03
      0.390000          0.151984E-03
      0.395000          0.150795E-03
      0.400000          0.149558E-03
      0.405000          0.148232E-03
      0.410000          0.146786E-03
      0.415000          0.145200E-03
      0.420000          0.143468E-03
      0.425000          0.141593E-03
      0.430000          0.139589E-03
      0.435000          0.137476E-03
      0.440000          0.135282E-03
      0.445000          0.133036E-03
      0.450000          0.130769E-03
      0.455000          0.128510E-03
      0.460000          0.126288E-03
      0.465000          0.124122E-03
      0.470000          0.122030E-03
      0.475000          0.120023E-03
      0.480000          0.118105E-03
      0.485000          0.116277E-03
      0.490000          0.114533E-03
      0.495000          0.112866E-03
      0.500000          0.111264E-03
