 I_abs(s)[cm^-1]/c[mg/ml]
       0.00000          0.147705E-01
      0.500000E-02      0.147234E-01
      0.100000E-01      0.145829E-01
      0.150000E-01      0.143519E-01
      0.200000E-01      0.140347E-01
      0.250000E-01      0.136375E-01
      0.300000E-01      0.131678E-01
      0.350000E-01      0.126342E-01
      0.400000E-01      0.120462E-01
      0.450000E-01      0.114141E-01
      0.500000E-01      0.107483E-01
      0.550000E-01      0.100593E-01
      0.600000E-01      0.935761E-02
      0.650000E-01      0.865295E-02
      0.700000E-01      0.795453E-02
      0.750000E-01      0.727061E-02
      0.800000E-01      0.660849E-02
      0.850000E-01      0.597435E-02
      0.900000E-01      0.537320E-02
      0.950000E-01      0.480891E-02
      0.100000          0.428421E-02
      0.105000          0.380073E-02
      0.110000          0.335915E-02
      0.115000          0.295923E-02
      0.120000          0.260001E-02
      0.125000          0.227987E-02
      0.130000          0.199670E-02
      0.135000          0.174802E-02
      0.140000          0.153110E-02
      0.145000          0.134306E-02
      0.150000          0.118098E-02
      0.155000          0.104195E-02
      0.160000          0.923179E-03
      0.165000          0.822015E-03
      0.170000          0.735992E-03
      0.175000          0.662856E-03
      0.180000          0.600575E-03
      0.185000          0.547349E-03
      0.190000          0.501602E-03
      0.195000          0.461980E-03
      0.200000          0.427333E-03
      0.205000          0.396705E-03
      0.210000          0.369313E-03
      0.215000          0.344528E-03
      0.220000          0.321862E-03
      0.225000          0.300941E-03
      0.230000          0.281494E-03
      0.235000          0.263331E-03
      0.240000          0.246329E-03
      0.245000          0.230416E-03
      0.250000          0.215555E-03
      0.255000          0.201736E-03
      0.260000          0.188960E-03
      0.265000          0.177235E-03
      0.270000          0.166564E-03
      0.275000          0.156943E-03
      0.280000          0.148356E-03
      0.285000          0.140772E-03
      0.290000          0.134146E-03
      0.295000          0.128421E-03
      0.300000          0.123524E-03
      0.305000          0.119377E-03
      0.310000          0.115894E-03
      0.315000          0.112985E-03
      0.320000          0.110562E-03
      0.325000          0.108541E-03
      0.330000          0.106845E-03
      0.335000          0.105402E-03
      0.340000          0.104153E-03
      0.345000          0.103048E-03
      0.350000          0.102049E-03
      0.355000          0.101126E-03
      0.360000          0.100259E-03
      0.365000          0.994361E-04
      0.370000          0.986516E-04
      0.375000          0.979042E-04
      0.380000          0.971955E-04
      0.385000          0.965291E-04
      0.390000          0.959087E-04
      0.395000          0.953377E-04
      0.400000          0.948178E-04
      0.405000          0.943493E-04
      0.410000          0.939306E-04
      0.415000          0.935584E-04
      0.420000          0.932278E-04
      0.425000          0.929329E-04
      0.430000          0.926671E-04
      0.435000          0.924233E-04
      0.440000          0.921950E-04
      0.445000          0.919759E-04
      0.450000          0.917605E-04
      0.455000          0.915442E-04
      0.460000          0.913231E-04
      0.465000          0.910940E-04
      0.470000          0.908545E-04
      0.475000          0.906020E-04
      0.480000          0.903344E-04
      0.485000          0.900487E-04
      0.490000          0.897417E-04
      0.495000          0.894092E-04
      0.500000          0.890463E-04
