 I_abs(s)[cm^-1]/c[mg/ml]
       0.00000          0.144763E-01
      0.500000E-02      0.144313E-01
      0.100000E-01      0.142972E-01
      0.150000E-01      0.140767E-01
      0.200000E-01      0.137740E-01
      0.250000E-01      0.133951E-01
      0.300000E-01      0.129470E-01
      0.350000E-01      0.124380E-01
      0.400000E-01      0.118774E-01
      0.450000E-01      0.112747E-01
      0.500000E-01      0.106401E-01
      0.550000E-01      0.998364E-02
      0.600000E-01      0.931508E-02
      0.650000E-01      0.864376E-02
      0.700000E-01      0.797832E-02
      0.750000E-01      0.732653E-02
      0.800000E-01      0.669517E-02
      0.850000E-01      0.608992E-02
      0.900000E-01      0.551534E-02
      0.950000E-01      0.497487E-02
      0.100000          0.447084E-02
      0.105000          0.400456E-02
      0.110000          0.357643E-02
      0.115000          0.318603E-02
      0.120000          0.283224E-02
      0.125000          0.251342E-02
      0.130000          0.222752E-02
      0.135000          0.197220E-02
      0.140000          0.174498E-02
      0.145000          0.154331E-02
      0.150000          0.136468E-02
      0.155000          0.120670E-02
      0.160000          0.106711E-02
      0.165000          0.943868E-03
      0.170000          0.835122E-03
      0.175000          0.739245E-03
      0.180000          0.654810E-03
      0.185000          0.580584E-03
      0.190000          0.515501E-03
      0.195000          0.458640E-03
      0.200000          0.409197E-03
      0.205000          0.366461E-03
      0.210000          0.329793E-03
      0.215000          0.298602E-03
      0.220000          0.272338E-03
      0.225000          0.250475E-03
      0.230000          0.232506E-03
      0.235000          0.217943E-03
      0.240000          0.206312E-03
      0.245000          0.197159E-03
      0.250000          0.190055E-03
      0.255000          0.184595E-03
      0.260000          0.180406E-03
      0.265000          0.177155E-03
      0.270000          0.174543E-03
      0.275000          0.172315E-03
      0.280000          0.170258E-03
      0.285000          0.168199E-03
      0.290000          0.166005E-03
      0.295000          0.163579E-03
      0.300000          0.160860E-03
      0.305000          0.157813E-03
      0.310000          0.154431E-03
      0.315000          0.150723E-03
      0.320000          0.146720E-03
      0.325000          0.142460E-03
      0.330000          0.137993E-03
      0.335000          0.133374E-03
      0.340000          0.128658E-03
      0.345000          0.123905E-03
      0.350000          0.119170E-03
      0.355000          0.114507E-03
      0.360000          0.109966E-03
      0.365000          0.105593E-03
      0.370000          0.101427E-03
      0.375000          0.975032E-04
      0.380000          0.938487E-04
      0.385000          0.904852E-04
      0.390000          0.874275E-04
      0.395000          0.846839E-04
      0.400000          0.822561E-04
      0.405000          0.801393E-04
      0.410000          0.783229E-04
      0.415000          0.767906E-04
      0.420000          0.755212E-04
      0.425000          0.744894E-04
      0.430000          0.736665E-04
      0.435000          0.730215E-04
      0.440000          0.725220E-04
      0.445000          0.721353E-04
      0.450000          0.718295E-04
      0.455000          0.715742E-04
      0.460000          0.713419E-04
      0.465000          0.711082E-04
      0.470000          0.708528E-04
      0.475000          0.705598E-04
      0.480000          0.702181E-04
      0.485000          0.698211E-04
      0.490000          0.693669E-04
      0.495000          0.688578E-04
      0.500000          0.682998E-04
