 I_abs(s)[cm^-1]/c[mg/ml]
       0.00000          0.144209E-01
      0.500000E-02      0.143743E-01
      0.100000E-01      0.142352E-01
      0.150000E-01      0.140063E-01
      0.200000E-01      0.136919E-01
      0.250000E-01      0.132977E-01
      0.300000E-01      0.128310E-01
      0.350000E-01      0.123001E-01
      0.400000E-01      0.117143E-01
      0.450000E-01      0.110837E-01
      0.500000E-01      0.104184E-01
      0.550000E-01      0.972926E-02
      0.600000E-01      0.902655E-02
      0.650000E-01      0.832040E-02
      0.700000E-01      0.762031E-02
      0.750000E-01      0.693502E-02
      0.800000E-01      0.627230E-02
      0.850000E-01      0.563889E-02
      0.900000E-01      0.504035E-02
      0.950000E-01      0.448107E-02
      0.100000          0.396420E-02
      0.105000          0.349175E-02
      0.110000          0.306457E-02
      0.115000          0.268252E-02
      0.120000          0.234453E-02
      0.125000          0.204873E-02
      0.130000          0.179263E-02
      0.135000          0.157321E-02
      0.140000          0.138710E-02
      0.145000          0.123074E-02
      0.150000          0.110042E-02
      0.155000          0.992524E-03
      0.160000          0.903515E-03
      0.165000          0.830090E-03
      0.170000          0.769215E-03
      0.175000          0.718181E-03
      0.180000          0.674626E-03
      0.185000          0.636553E-03
      0.190000          0.602323E-03
      0.195000          0.570644E-03
      0.200000          0.540543E-03
      0.205000          0.511335E-03
      0.210000          0.482585E-03
      0.215000          0.454066E-03
      0.220000          0.425722E-03
      0.225000          0.397624E-03
      0.230000          0.369933E-03
      0.235000          0.342868E-03
      0.240000          0.316675E-03
      0.245000          0.291601E-03
      0.250000          0.267880E-03
      0.255000          0.245711E-03
      0.260000          0.225255E-03
      0.265000          0.206625E-03
      0.270000          0.189884E-03
      0.275000          0.175052E-03
      0.280000          0.162101E-03
      0.285000          0.150966E-03
      0.290000          0.141549E-03
      0.295000          0.133726E-03
      0.300000          0.127354E-03
      0.305000          0.122279E-03
      0.310000          0.118340E-03
      0.315000          0.115375E-03
      0.320000          0.113226E-03
      0.325000          0.111742E-03
      0.330000          0.110784E-03
      0.335000          0.110222E-03
      0.340000          0.109943E-03
      0.345000          0.109844E-03
      0.350000          0.109837E-03
      0.355000          0.109851E-03
      0.360000          0.109822E-03
      0.365000          0.109703E-03
      0.370000          0.109457E-03
      0.375000          0.109056E-03
      0.380000          0.108482E-03
      0.385000          0.107727E-03
      0.390000          0.106789E-03
      0.395000          0.105675E-03
      0.400000          0.104394E-03
      0.405000          0.102966E-03
      0.410000          0.101412E-03
      0.415000          0.997564E-04
      0.420000          0.980288E-04
      0.425000          0.962596E-04
      0.430000          0.944808E-04
      0.435000          0.927245E-04
      0.440000          0.910223E-04
      0.445000          0.894039E-04
      0.450000          0.878967E-04
      0.455000          0.865247E-04
      0.460000          0.853074E-04
      0.465000          0.842600E-04
      0.470000          0.833921E-04
      0.475000          0.827079E-04
      0.480000          0.822060E-04
      0.485000          0.818794E-04
      0.490000          0.817159E-04
      0.495000          0.816985E-04
      0.500000          0.818062E-04
