 I_abs(s)[cm^-1]/c[mg/ml]
       0.00000          0.131858E-01
      0.500000E-02      0.130961E-01
      0.100000E-01      0.128317E-01
      0.150000E-01      0.124058E-01
      0.200000E-01      0.118392E-01
      0.250000E-01      0.111588E-01
      0.300000E-01      0.103953E-01
      0.350000E-01      0.958103E-02
      0.400000E-01      0.874749E-02
      0.450000E-01      0.792344E-02
      0.500000E-01      0.713318E-02
      0.550000E-01      0.639539E-02
      0.600000E-01      0.572262E-02
      0.650000E-01      0.512134E-02
      0.700000E-01      0.459249E-02
      0.750000E-01      0.413246E-02
      0.800000E-01      0.373435E-02
      0.850000E-01      0.338930E-02
      0.900000E-01      0.308778E-02
      0.950000E-01      0.282068E-02
      0.100000          0.258012E-02
      0.105000          0.236000E-02
      0.110000          0.215614E-02
      0.115000          0.196621E-02
      0.120000          0.178935E-02
      0.125000          0.162579E-02
      0.130000          0.147627E-02
      0.135000          0.134162E-02
      0.140000          0.122234E-02
      0.145000          0.111839E-02
      0.150000          0.102908E-02
      0.155000          0.953068E-03
      0.160000          0.888567E-03
      0.165000          0.833499E-03
      0.170000          0.785745E-03
      0.175000          0.743350E-03
      0.180000          0.704693E-03
      0.185000          0.668572E-03
      0.190000          0.634237E-03
      0.195000          0.601344E-03
      0.200000          0.569864E-03
      0.205000          0.539972E-03
      0.210000          0.511920E-03
      0.215000          0.485936E-03
      0.220000          0.462144E-03
      0.225000          0.440528E-03
      0.230000          0.420923E-03
      0.235000          0.403046E-03
      0.240000          0.386537E-03
      0.245000          0.371019E-03
      0.250000          0.356145E-03
      0.255000          0.341642E-03
      0.260000          0.327334E-03
      0.265000          0.313145E-03
      0.270000          0.299090E-03
      0.275000          0.285254E-03
      0.280000          0.271761E-03
      0.285000          0.258746E-03
      0.290000          0.246334E-03
      0.295000          0.234619E-03
      0.300000          0.223662E-03
      0.305000          0.213485E-03
      0.310000          0.204083E-03
      0.315000          0.195429E-03
      0.320000          0.187485E-03
      0.325000          0.180206E-03
      0.330000          0.173546E-03
      0.335000          0.167461E-03
      0.340000          0.161903E-03
      0.345000          0.156820E-03
      0.350000          0.152153E-03
      0.355000          0.147839E-03
      0.360000          0.143812E-03
      0.365000          0.140006E-03
      0.370000          0.136366E-03
      0.375000          0.132854E-03
      0.380000          0.129454E-03
      0.385000          0.126175E-03
      0.390000          0.123049E-03
      0.395000          0.120130E-03
      0.400000          0.117482E-03
      0.405000          0.115168E-03
      0.410000          0.113241E-03
      0.415000          0.111729E-03
      0.420000          0.110632E-03
      0.425000          0.109915E-03
      0.430000          0.109512E-03
      0.435000          0.109326E-03
      0.440000          0.109249E-03
      0.445000          0.109163E-03
      0.450000          0.108960E-03
      0.455000          0.108553E-03
      0.460000          0.107879E-03
      0.465000          0.106913E-03
      0.470000          0.105659E-03
      0.475000          0.104153E-03
      0.480000          0.102455E-03
      0.485000          0.100636E-03
      0.490000          0.987712E-04
      0.495000          0.969295E-04
      0.500000          0.951655E-04
