 I_abs(s)[cm^-1]/c[mg/ml]
       0.00000          0.139142E-01
      0.500000E-02      0.138562E-01
      0.100000E-01      0.136837E-01
      0.150000E-01      0.134009E-01
      0.200000E-01      0.130146E-01
      0.250000E-01      0.125338E-01
      0.300000E-01      0.119699E-01
      0.350000E-01      0.113356E-01
      0.400000E-01      0.106450E-01
      0.450000E-01      0.991293E-02
      0.500000E-01      0.915431E-02
      0.550000E-01      0.838396E-02
      0.600000E-01      0.761598E-02
      0.650000E-01      0.686340E-02
      0.700000E-01      0.613783E-02
      0.750000E-01      0.544921E-02
      0.800000E-01      0.480561E-02
      0.850000E-01      0.421311E-02
      0.900000E-01      0.367583E-02
      0.950000E-01      0.319595E-02
      0.100000          0.277382E-02
      0.105000          0.240818E-02
      0.110000          0.209636E-02
      0.115000          0.183455E-02
      0.120000          0.161809E-02
      0.125000          0.144173E-02
      0.130000          0.129991E-02
      0.135000          0.118703E-02
      0.140000          0.109765E-02
      0.145000          0.102669E-02
      0.150000          0.969551E-03
      0.155000          0.922258E-03
      0.160000          0.881482E-03
      0.165000          0.844575E-03
      0.170000          0.809550E-03
      0.175000          0.775036E-03
      0.180000          0.740207E-03
      0.185000          0.704698E-03
      0.190000          0.668511E-03
      0.195000          0.631915E-03
      0.200000          0.595355E-03
      0.205000          0.559367E-03
      0.210000          0.524502E-03
      0.215000          0.491269E-03
      0.220000          0.460089E-03
      0.225000          0.431271E-03
      0.230000          0.404993E-03
      0.235000          0.381305E-03
      0.240000          0.360140E-03
      0.245000          0.341330E-03
      0.250000          0.324630E-03
      0.255000          0.309747E-03
      0.260000          0.296365E-03
      0.265000          0.284168E-03
      0.270000          0.272865E-03
      0.275000          0.262205E-03
      0.280000          0.251987E-03
      0.285000          0.242069E-03
      0.290000          0.232366E-03
      0.295000          0.222850E-03
      0.300000          0.213536E-03
      0.305000          0.204482E-03
      0.310000          0.195767E-03
      0.315000          0.187487E-03
      0.320000          0.179738E-03
      0.325000          0.172609E-03
      0.330000          0.166171E-03
      0.335000          0.160473E-03
      0.340000          0.155535E-03
      0.345000          0.151348E-03
      0.350000          0.147876E-03
      0.355000          0.145057E-03
      0.360000          0.142808E-03
      0.365000          0.141031E-03
      0.370000          0.139618E-03
      0.375000          0.138459E-03
      0.380000          0.137444E-03
      0.385000          0.136473E-03
      0.390000          0.135459E-03
      0.395000          0.134330E-03
      0.400000          0.133030E-03
      0.405000          0.131526E-03
      0.410000          0.129799E-03
      0.415000          0.127850E-03
      0.420000          0.125693E-03
      0.425000          0.123355E-03
      0.430000          0.120871E-03
      0.435000          0.118283E-03
      0.440000          0.115635E-03
      0.445000          0.112968E-03
      0.450000          0.110324E-03
      0.455000          0.107735E-03
      0.460000          0.105229E-03
      0.465000          0.102826E-03
      0.470000          0.100539E-03
      0.475000          0.983721E-04
      0.480000          0.963244E-04
      0.485000          0.943895E-04
      0.490000          0.925575E-04
      0.495000          0.908167E-04
      0.500000          0.891548E-04
