 I_abs(s)[cm^-1]/c[mg/ml]
       0.00000          0.145684E-01
      0.500000E-02      0.145026E-01
      0.100000E-01      0.143070E-01
      0.150000E-01      0.139864E-01
      0.200000E-01      0.135488E-01
      0.250000E-01      0.130050E-01
      0.300000E-01      0.123681E-01
      0.350000E-01      0.116530E-01
      0.400000E-01      0.108761E-01
      0.450000E-01      0.100544E-01
      0.500000E-01      0.920534E-02
      0.550000E-01      0.834569E-02
      0.600000E-01      0.749150E-02
      0.650000E-01      0.665745E-02
      0.700000E-01      0.585652E-02
      0.750000E-01      0.509968E-02
      0.800000E-01      0.439573E-02
      0.850000E-01      0.375123E-02
      0.900000E-01      0.317046E-02
      0.950000E-01      0.265558E-02
      0.100000          0.220674E-02
      0.105000          0.182234E-02
      0.110000          0.149931E-02
      0.115000          0.123339E-02
      0.120000          0.101942E-02
      0.125000          0.851709E-03
      0.130000          0.724238E-03
      0.135000          0.630967E-03
      0.140000          0.566030E-03
      0.145000          0.523911E-03
      0.150000          0.499577E-03
      0.155000          0.488562E-03
      0.160000          0.487009E-03
      0.165000          0.491686E-03
      0.170000          0.499964E-03
      0.175000          0.509773E-03
      0.180000          0.519543E-03
      0.185000          0.528142E-03
      0.190000          0.534796E-03
      0.195000          0.539024E-03
      0.200000          0.540575E-03
      0.205000          0.539364E-03
      0.210000          0.535429E-03
      0.215000          0.528893E-03
      0.220000          0.519931E-03
      0.225000          0.508755E-03
      0.230000          0.495598E-03
      0.235000          0.480703E-03
      0.240000          0.464324E-03
      0.245000          0.446721E-03
      0.250000          0.428157E-03
      0.255000          0.408897E-03
      0.260000          0.389209E-03
      0.265000          0.369355E-03
      0.270000          0.349591E-03
      0.275000          0.330158E-03
      0.280000          0.311281E-03
      0.285000          0.293159E-03
      0.290000          0.275962E-03
      0.295000          0.259827E-03
      0.300000          0.244856E-03
      0.305000          0.231115E-03
      0.310000          0.218634E-03
      0.315000          0.207410E-03
      0.320000          0.197410E-03
      0.325000          0.188575E-03
      0.330000          0.180829E-03
      0.335000          0.174079E-03
      0.340000          0.168225E-03
      0.345000          0.163165E-03
      0.350000          0.158796E-03
      0.355000          0.155020E-03
      0.360000          0.151749E-03
      0.365000          0.148902E-03
      0.370000          0.146409E-03
      0.375000          0.144210E-03
      0.380000          0.142253E-03
      0.385000          0.140497E-03
      0.390000          0.138904E-03
      0.395000          0.137443E-03
      0.400000          0.136085E-03
      0.405000          0.134802E-03
      0.410000          0.133567E-03
      0.415000          0.132354E-03
      0.420000          0.131134E-03
      0.425000          0.129879E-03
      0.430000          0.128560E-03
      0.435000          0.127150E-03
      0.440000          0.125624E-03
      0.445000          0.123957E-03
      0.450000          0.122131E-03
      0.455000          0.120132E-03
      0.460000          0.117953E-03
      0.465000          0.115593E-03
      0.470000          0.113058E-03
      0.475000          0.110363E-03
      0.480000          0.107528E-03
      0.485000          0.104582E-03
      0.490000          0.101558E-03
      0.495000          0.984932E-04
      0.500000          0.954297E-04
