 I_abs(s)[cm^-1]/c[mg/ml]
       0.00000          0.145446E-01
      0.500000E-02      0.144727E-01
      0.100000E-01      0.142593E-01
      0.150000E-01      0.139112E-01
      0.200000E-01      0.134391E-01
      0.250000E-01      0.128574E-01
      0.300000E-01      0.121834E-01
      0.350000E-01      0.114363E-01
      0.400000E-01      0.106362E-01
      0.450000E-01      0.980364E-02
      0.500000E-01      0.895832E-02
      0.550000E-01      0.811849E-02
      0.600000E-01      0.730032E-02
      0.650000E-01      0.651746E-02
      0.700000E-01      0.578072E-02
      0.750000E-01      0.509799E-02
      0.800000E-01      0.447433E-02
      0.850000E-01      0.391216E-02
      0.900000E-01      0.341157E-02
      0.950000E-01      0.297075E-02
      0.100000          0.258642E-02
      0.105000          0.225426E-02
      0.110000          0.196932E-02
      0.115000          0.172640E-02
      0.120000          0.152035E-02
      0.125000          0.134626E-02
      0.130000          0.119964E-02
      0.135000          0.107646E-02
      0.140000          0.973192E-03
      0.145000          0.886789E-03
      0.150000          0.814607E-03
      0.155000          0.754355E-03
      0.160000          0.704019E-03
      0.165000          0.661810E-03
      0.170000          0.626117E-03
      0.175000          0.595482E-03
      0.180000          0.568598E-03
      0.185000          0.544307E-03
      0.190000          0.521621E-03
      0.195000          0.499738E-03
      0.200000          0.478054E-03
      0.205000          0.456174E-03
      0.210000          0.433905E-03
      0.215000          0.411241E-03
      0.220000          0.388334E-03
      0.225000          0.365461E-03
      0.230000          0.342977E-03
      0.235000          0.321268E-03
      0.240000          0.300714E-03
      0.245000          0.281643E-03
      0.250000          0.264306E-03
      0.255000          0.248859E-03
      0.260000          0.235352E-03
      0.265000          0.223733E-03
      0.270000          0.213860E-03
      0.275000          0.205524E-03
      0.280000          0.198466E-03
      0.285000          0.192407E-03
      0.290000          0.187073E-03
      0.295000          0.182211E-03
      0.300000          0.177610E-03
      0.305000          0.173109E-03
      0.310000          0.168603E-03
      0.315000          0.164042E-03
      0.320000          0.159424E-03
      0.325000          0.154789E-03
      0.330000          0.150206E-03
      0.335000          0.145759E-03
      0.340000          0.141540E-03
      0.345000          0.137636E-03
      0.350000          0.134120E-03
      0.355000          0.131046E-03
      0.360000          0.128447E-03
      0.365000          0.126331E-03
      0.370000          0.124682E-03
      0.375000          0.123467E-03
      0.380000          0.122634E-03
      0.385000          0.122119E-03
      0.390000          0.121852E-03
      0.395000          0.121760E-03
      0.400000          0.121770E-03
      0.405000          0.121816E-03
      0.410000          0.121841E-03
      0.415000          0.121796E-03
      0.420000          0.121648E-03
      0.425000          0.121372E-03
      0.430000          0.120957E-03
      0.435000          0.120402E-03
      0.440000          0.119717E-03
      0.445000          0.118917E-03
      0.450000          0.118025E-03
      0.455000          0.117063E-03
      0.460000          0.116056E-03
      0.465000          0.115027E-03
      0.470000          0.113997E-03
      0.475000          0.112981E-03
      0.480000          0.111991E-03
      0.485000          0.111033E-03
      0.490000          0.110109E-03
      0.495000          0.109216E-03
      0.500000          0.108350E-03
