 I_abs(s)[cm^-1]/c[mg/ml]
       0.00000          0.144417E-01
      0.500000E-02      0.143653E-01
      0.100000E-01      0.141386E-01
      0.150000E-01      0.137684E-01
      0.200000E-01      0.132661E-01
      0.250000E-01      0.126464E-01
      0.300000E-01      0.119276E-01
      0.350000E-01      0.111300E-01
      0.400000E-01      0.102752E-01
      0.450000E-01      0.938550E-02
      0.500000E-01      0.848271E-02
      0.550000E-01      0.758740E-02
      0.600000E-01      0.671822E-02
      0.650000E-01      0.589124E-02
      0.700000E-01      0.511961E-02
      0.750000E-01      0.441324E-02
      0.800000E-01      0.377874E-02
      0.850000E-01      0.321953E-02
      0.900000E-01      0.273603E-02
      0.950000E-01      0.232602E-02
      0.100000          0.198510E-02
      0.105000          0.170714E-02
      0.110000          0.148483E-02
      0.115000          0.131020E-02
      0.120000          0.117505E-02
      0.125000          0.107141E-02
      0.130000          0.991848E-03
      0.135000          0.929754E-03
      0.140000          0.879498E-03
      0.145000          0.836523E-03
      0.150000          0.797354E-03
      0.155000          0.759544E-03
      0.160000          0.721574E-03
      0.165000          0.682709E-03
      0.170000          0.642840E-03
      0.175000          0.602317E-03
      0.180000          0.561791E-03
      0.185000          0.522065E-03
      0.190000          0.483974E-03
      0.195000          0.448289E-03
      0.200000          0.415648E-03
      0.205000          0.386510E-03
      0.210000          0.361146E-03
      0.215000          0.339631E-03
      0.220000          0.321869E-03
      0.225000          0.307622E-03
      0.230000          0.296538E-03
      0.235000          0.288195E-03
      0.240000          0.282132E-03
      0.245000          0.277880E-03
      0.250000          0.274991E-03
      0.255000          0.273055E-03
      0.260000          0.271713E-03
      0.265000          0.270667E-03
      0.270000          0.269676E-03
      0.275000          0.268560E-03
      0.280000          0.267192E-03
      0.285000          0.265488E-03
      0.290000          0.263406E-03
      0.295000          0.260927E-03
      0.300000          0.258059E-03
      0.305000          0.254820E-03
      0.310000          0.251237E-03
      0.315000          0.247342E-03
      0.320000          0.243168E-03
      0.325000          0.238745E-03
      0.330000          0.234105E-03
      0.335000          0.229275E-03
      0.340000          0.224283E-03
      0.345000          0.219158E-03
      0.350000          0.213929E-03
      0.355000          0.208628E-03
      0.360000          0.203291E-03
      0.365000          0.197954E-03
      0.370000          0.192661E-03
      0.375000          0.187451E-03
      0.380000          0.182368E-03
      0.385000          0.177453E-03
      0.390000          0.172741E-03
      0.395000          0.168262E-03
      0.400000          0.164039E-03
      0.405000          0.160082E-03
      0.410000          0.156394E-03
      0.415000          0.152962E-03
      0.420000          0.149766E-03
      0.425000          0.146774E-03
      0.430000          0.143946E-03
      0.435000          0.141238E-03
      0.440000          0.138604E-03
      0.445000          0.135995E-03
      0.450000          0.133370E-03
      0.455000          0.130693E-03
      0.460000          0.127935E-03
      0.465000          0.125081E-03
      0.470000          0.122125E-03
      0.475000          0.119074E-03
      0.480000          0.115947E-03
      0.485000          0.112770E-03
      0.490000          0.109580E-03
      0.495000          0.106419E-03
      0.500000          0.103333E-03
