 I_abs(s)[cm^-1]/c[mg/ml]
       0.00000          0.143549E-01
      0.500000E-02      0.142813E-01
      0.100000E-01      0.140631E-01
      0.150000E-01      0.137075E-01
      0.200000E-01      0.132260E-01
      0.250000E-01      0.126340E-01
      0.300000E-01      0.119497E-01
      0.350000E-01      0.111935E-01
      0.400000E-01      0.103866E-01
      0.450000E-01      0.955027E-02
      0.500000E-01      0.870488E-02
      0.550000E-01      0.786904E-02
      0.600000E-01      0.705904E-02
      0.650000E-01      0.628834E-02
      0.700000E-01      0.556735E-02
      0.750000E-01      0.490340E-02
      0.800000E-01      0.430084E-02
      0.850000E-01      0.376131E-02
      0.900000E-01      0.328415E-02
      0.950000E-01      0.286685E-02
      0.100000          0.250549E-02
      0.105000          0.219522E-02
      0.110000          0.193068E-02
      0.115000          0.170637E-02
      0.120000          0.151693E-02
      0.125000          0.135733E-02
      0.130000          0.122302E-02
      0.135000          0.110998E-02
      0.140000          0.101473E-02
      0.145000          0.934303E-03
      0.150000          0.866180E-03
      0.155000          0.808235E-03
      0.160000          0.758664E-03
      0.165000          0.715925E-03
      0.170000          0.678690E-03
      0.175000          0.645813E-03
      0.180000          0.616304E-03
      0.185000          0.589318E-03
      0.190000          0.564151E-03
      0.195000          0.540231E-03
      0.200000          0.517118E-03
      0.205000          0.494501E-03
      0.210000          0.472185E-03
      0.215000          0.450078E-03
      0.220000          0.428177E-03
      0.225000          0.406551E-03
      0.230000          0.385315E-03
      0.235000          0.364616E-03
      0.240000          0.344611E-03
      0.245000          0.325453E-03
      0.250000          0.307277E-03
      0.255000          0.290190E-03
      0.260000          0.274267E-03
      0.265000          0.259547E-03
      0.270000          0.246031E-03
      0.275000          0.233688E-03
      0.280000          0.222461E-03
      0.285000          0.212269E-03
      0.290000          0.203017E-03
      0.295000          0.194603E-03
      0.300000          0.186926E-03
      0.305000          0.179893E-03
      0.310000          0.173422E-03
      0.315000          0.167449E-03
      0.320000          0.161929E-03
      0.325000          0.156833E-03
      0.330000          0.152149E-03
      0.335000          0.147878E-03
      0.340000          0.144029E-03
      0.345000          0.140613E-03
      0.350000          0.137636E-03
      0.355000          0.135098E-03
      0.360000          0.132985E-03
      0.365000          0.131270E-03
      0.370000          0.129911E-03
      0.375000          0.128851E-03
      0.380000          0.128023E-03
      0.385000          0.127355E-03
      0.390000          0.126771E-03
      0.395000          0.126200E-03
      0.400000          0.125578E-03
      0.405000          0.124853E-03
      0.410000          0.123989E-03
      0.415000          0.122964E-03
      0.420000          0.121775E-03
      0.425000          0.120432E-03
      0.430000          0.118957E-03
      0.435000          0.117383E-03
      0.440000          0.115746E-03
      0.445000          0.114087E-03
      0.450000          0.112443E-03
      0.455000          0.110850E-03
      0.460000          0.109336E-03
      0.465000          0.107923E-03
      0.470000          0.106625E-03
      0.475000          0.105448E-03
      0.480000          0.104392E-03
      0.485000          0.103450E-03
      0.490000          0.102611E-03
      0.495000          0.101859E-03
      0.500000          0.101178E-03
