 I_abs(s)[cm^-1]/c[mg/ml]
       0.00000          0.145288E-01
      0.500000E-02      0.144747E-01
      0.100000E-01      0.143136E-01
      0.150000E-01      0.140491E-01
      0.200000E-01      0.136866E-01
      0.250000E-01      0.132340E-01
      0.300000E-01      0.127006E-01
      0.350000E-01      0.120972E-01
      0.400000E-01      0.114358E-01
      0.450000E-01      0.107292E-01
      0.500000E-01      0.999045E-02
      0.550000E-01      0.923258E-02
      0.600000E-01      0.846832E-02
      0.650000E-01      0.770969E-02
      0.700000E-01      0.696772E-02
      0.750000E-01      0.625223E-02
      0.800000E-01      0.557162E-02
      0.850000E-01      0.493276E-02
      0.900000E-01      0.434092E-02
      0.950000E-01      0.379980E-02
      0.100000          0.331150E-02
      0.105000          0.287668E-02
      0.110000          0.249468E-02
      0.115000          0.216365E-02
      0.120000          0.188081E-02
      0.125000          0.164256E-02
      0.130000          0.144478E-02
      0.135000          0.128293E-02
      0.140000          0.115233E-02
      0.145000          0.104827E-02
      0.150000          0.966197E-03
      0.155000          0.901796E-03
      0.160000          0.851125E-03
      0.165000          0.810666E-03
      0.170000          0.777373E-03
      0.175000          0.748688E-03
      0.180000          0.722544E-03
      0.185000          0.697344E-03
      0.190000          0.671924E-03
      0.195000          0.645514E-03
      0.200000          0.617682E-03
      0.205000          0.588281E-03
      0.210000          0.557393E-03
      0.215000          0.525274E-03
      0.220000          0.492301E-03
      0.225000          0.458928E-03
      0.230000          0.425644E-03
      0.235000          0.392939E-03
      0.240000          0.361279E-03
      0.245000          0.331080E-03
      0.250000          0.302698E-03
      0.255000          0.276415E-03
      0.260000          0.252438E-03
      0.265000          0.230895E-03
      0.270000          0.211841E-03
      0.275000          0.195261E-03
      0.280000          0.181077E-03
      0.285000          0.169162E-03
      0.290000          0.159342E-03
      0.295000          0.151415E-03
      0.300000          0.145153E-03
      0.305000          0.140319E-03
      0.310000          0.136671E-03
      0.315000          0.133974E-03
      0.320000          0.132006E-03
      0.325000          0.130564E-03
      0.330000          0.129468E-03
      0.335000          0.128564E-03
      0.340000          0.127730E-03
      0.345000          0.126869E-03
      0.350000          0.125915E-03
      0.355000          0.124829E-03
      0.360000          0.123594E-03
      0.365000          0.122214E-03
      0.370000          0.120711E-03
      0.375000          0.119117E-03
      0.380000          0.117474E-03
      0.385000          0.115824E-03
      0.390000          0.114214E-03
      0.395000          0.112683E-03
      0.400000          0.111269E-03
      0.405000          0.109997E-03
      0.410000          0.108886E-03
      0.415000          0.107946E-03
      0.420000          0.107174E-03
      0.425000          0.106561E-03
      0.430000          0.106090E-03
      0.435000          0.105737E-03
      0.440000          0.105473E-03
      0.445000          0.105268E-03
      0.450000          0.105089E-03
      0.455000          0.104905E-03
      0.460000          0.104688E-03
      0.465000          0.104411E-03
      0.470000          0.104055E-03
      0.475000          0.103602E-03
      0.480000          0.103043E-03
      0.485000          0.102371E-03
      0.490000          0.101585E-03
      0.495000          0.100688E-03
      0.500000          0.996884E-04
