 I_abs(s)[cm^-1]/c[mg/ml]
       0.00000          0.144654E-01
      0.500000E-02      0.144060E-01
      0.100000E-01      0.142294E-01
      0.150000E-01      0.139399E-01
      0.200000E-01      0.135446E-01
      0.250000E-01      0.130532E-01
      0.300000E-01      0.124772E-01
      0.350000E-01      0.118302E-01
      0.400000E-01      0.111264E-01
      0.450000E-01      0.103812E-01
      0.500000E-01      0.960980E-02
      0.550000E-01      0.882713E-02
      0.600000E-01      0.804728E-02
      0.650000E-01      0.728314E-02
      0.700000E-01      0.654604E-02
      0.750000E-01      0.584551E-02
      0.800000E-01      0.518915E-02
      0.850000E-01      0.458256E-02
      0.900000E-01      0.402935E-02
      0.950000E-01      0.353125E-02
      0.100000          0.308831E-02
      0.105000          0.269904E-02
      0.110000          0.236074E-02
      0.115000          0.206972E-02
      0.120000          0.182163E-02
      0.125000          0.161168E-02
      0.130000          0.143491E-02
      0.135000          0.128642E-02
      0.140000          0.116153E-02
      0.145000          0.105593E-02
      0.150000          0.965809E-03
      0.155000          0.887861E-03
      0.160000          0.819348E-03
      0.165000          0.758076E-03
      0.170000          0.702364E-03
      0.175000          0.650986E-03
      0.180000          0.603108E-03
      0.185000          0.558211E-03
      0.190000          0.516020E-03
      0.195000          0.476431E-03
      0.200000          0.439451E-03
      0.205000          0.405141E-03
      0.210000          0.373575E-03
      0.215000          0.344809E-03
      0.220000          0.318859E-03
      0.225000          0.295692E-03
      0.230000          0.275221E-03
      0.235000          0.257307E-03
      0.240000          0.241770E-03
      0.245000          0.228396E-03
      0.250000          0.216952E-03
      0.255000          0.207192E-03
      0.260000          0.198872E-03
      0.265000          0.191760E-03
      0.270000          0.185636E-03
      0.275000          0.180305E-03
      0.280000          0.175595E-03
      0.285000          0.171358E-03
      0.290000          0.167474E-03
      0.295000          0.163845E-03
      0.300000          0.160398E-03
      0.305000          0.157076E-03
      0.310000          0.153840E-03
      0.315000          0.150665E-03
      0.320000          0.147538E-03
      0.325000          0.144451E-03
      0.330000          0.141406E-03
      0.335000          0.138406E-03
      0.340000          0.135457E-03
      0.345000          0.132566E-03
      0.350000          0.129740E-03
      0.355000          0.126983E-03
      0.360000          0.124301E-03
      0.365000          0.121694E-03
      0.370000          0.119166E-03
      0.375000          0.116716E-03
      0.380000          0.114345E-03
      0.385000          0.112055E-03
      0.390000          0.109848E-03
      0.395000          0.107728E-03
      0.400000          0.105703E-03
      0.405000          0.103783E-03
      0.410000          0.101980E-03
      0.415000          0.100308E-03
      0.420000          0.987840E-04
      0.425000          0.974247E-04
      0.430000          0.962460E-04
      0.435000          0.952621E-04
      0.440000          0.944833E-04
      0.445000          0.939157E-04
      0.450000          0.935590E-04
      0.455000          0.934064E-04
      0.460000          0.934438E-04
      0.465000          0.936497E-04
      0.470000          0.939956E-04
      0.475000          0.944468E-04
      0.480000          0.949638E-04
      0.485000          0.955038E-04
      0.490000          0.960223E-04
      0.495000          0.964759E-04
      0.500000          0.968232E-04
