 I_abs(s)[cm^-1]/c[mg/ml]
       0.00000          0.147660E-01
      0.500000E-02      0.146952E-01
      0.100000E-01      0.144847E-01
      0.150000E-01      0.141407E-01
      0.200000E-01      0.136730E-01
      0.250000E-01      0.130948E-01
      0.300000E-01      0.124220E-01
      0.350000E-01      0.116725E-01
      0.400000E-01      0.108655E-01
      0.450000E-01      0.100206E-01
      0.500000E-01      0.915729E-02
      0.550000E-01      0.829383E-02
      0.600000E-01      0.744697E-02
      0.650000E-01      0.663133E-02
      0.700000E-01      0.585902E-02
      0.750000E-01      0.513946E-02
      0.800000E-01      0.447931E-02
      0.850000E-01      0.388252E-02
      0.900000E-01      0.335054E-02
      0.950000E-01      0.288261E-02
      0.100000          0.247611E-02
      0.105000          0.212699E-02
      0.110000          0.183017E-02
      0.115000          0.157992E-02
      0.120000          0.137030E-02
      0.125000          0.119543E-02
      0.130000          0.104976E-02
      0.135000          0.928245E-03
      0.140000          0.826502E-03
      0.145000          0.740821E-03
      0.150000          0.668184E-03
      0.155000          0.606209E-03
      0.160000          0.553072E-03
      0.165000          0.507406E-03
      0.170000          0.468193E-03
      0.175000          0.434663E-03
      0.180000          0.406204E-03
      0.185000          0.382283E-03
      0.190000          0.362399E-03
      0.195000          0.346052E-03
      0.200000          0.332723E-03
      0.205000          0.321884E-03
      0.210000          0.313009E-03
      0.215000          0.305594E-03
      0.220000          0.299182E-03
      0.225000          0.293381E-03
      0.230000          0.287877E-03
      0.235000          0.282446E-03
      0.240000          0.276953E-03
      0.245000          0.271340E-03
      0.250000          0.265622E-03
      0.255000          0.259857E-03
      0.260000          0.254140E-03
      0.265000          0.248569E-03
      0.270000          0.243242E-03
      0.275000          0.238232E-03
      0.280000          0.233584E-03
      0.285000          0.229308E-03
      0.290000          0.225384E-03
      0.295000          0.221762E-03
      0.300000          0.218373E-03
      0.305000          0.215136E-03
      0.310000          0.211971E-03
      0.315000          0.208805E-03
      0.320000          0.205580E-03
      0.325000          0.202261E-03
      0.330000          0.198829E-03
      0.335000          0.195292E-03
      0.340000          0.191671E-03
      0.345000          0.188002E-03
      0.350000          0.184328E-03
      0.355000          0.180690E-03
      0.360000          0.177126E-03
      0.365000          0.173667E-03
      0.370000          0.170329E-03
      0.375000          0.167115E-03
      0.380000          0.164018E-03
      0.385000          0.161020E-03
      0.390000          0.158098E-03
      0.395000          0.155223E-03
      0.400000          0.152373E-03
      0.405000          0.149528E-03
      0.410000          0.146677E-03
      0.415000          0.143820E-03
      0.420000          0.140969E-03
      0.425000          0.138143E-03
      0.430000          0.135372E-03
      0.435000          0.132690E-03
      0.440000          0.130130E-03
      0.445000          0.127726E-03
      0.450000          0.125504E-03
      0.455000          0.123480E-03
      0.460000          0.121662E-03
      0.465000          0.120041E-03
      0.470000          0.118599E-03
      0.475000          0.117303E-03
      0.480000          0.116114E-03
      0.485000          0.114985E-03
      0.490000          0.113864E-03
      0.495000          0.112703E-03
      0.500000          0.111458E-03
