 I_abs(s)[cm^-1]/c[mg/ml]
       0.00000          0.143448E-01
      0.500000E-02      0.142591E-01
      0.100000E-01      0.140054E-01
      0.150000E-01      0.135932E-01
      0.200000E-01      0.130380E-01
      0.250000E-01      0.123600E-01
      0.300000E-01      0.115834E-01
      0.350000E-01      0.107344E-01
      0.400000E-01      0.984036E-02
      0.450000E-01      0.892821E-02
      0.500000E-01      0.802297E-02
      0.550000E-01      0.714689E-02
      0.600000E-01      0.631843E-02
      0.650000E-01      0.555183E-02
      0.700000E-01      0.485679E-02
      0.750000E-01      0.423859E-02
      0.800000E-01      0.369838E-02
      0.850000E-01      0.323376E-02
      0.900000E-01      0.283948E-02
      0.950000E-01      0.250821E-02
      0.100000          0.223141E-02
      0.105000          0.200006E-02
      0.110000          0.180532E-02
      0.115000          0.163913E-02
      0.120000          0.149454E-02
      0.125000          0.136595E-02
      0.130000          0.124920E-02
      0.135000          0.114146E-02
      0.140000          0.104112E-02
      0.145000          0.947519E-03
      0.150000          0.860658E-03
      0.155000          0.780953E-03
      0.160000          0.708962E-03
      0.165000          0.645184E-03
      0.170000          0.589900E-03
      0.175000          0.543091E-03
      0.180000          0.504396E-03
      0.185000          0.473143E-03
      0.190000          0.448400E-03
      0.195000          0.429064E-03
      0.200000          0.413955E-03
      0.205000          0.401910E-03
      0.210000          0.391866E-03
      0.215000          0.382921E-03
      0.220000          0.374374E-03
      0.225000          0.365737E-03
      0.230000          0.356730E-03
      0.235000          0.347256E-03
      0.240000          0.337362E-03
      0.245000          0.327195E-03
      0.250000          0.316960E-03
      0.255000          0.306873E-03
      0.260000          0.297133E-03
      0.265000          0.287893E-03
      0.270000          0.279248E-03
      0.275000          0.271229E-03
      0.280000          0.263809E-03
      0.285000          0.256910E-03
      0.290000          0.250420E-03
      0.295000          0.244207E-03
      0.300000          0.238137E-03
      0.305000          0.232086E-03
      0.310000          0.225954E-03
      0.315000          0.219668E-03
      0.320000          0.213188E-03
      0.325000          0.206508E-03
      0.330000          0.199652E-03
      0.335000          0.192669E-03
      0.340000          0.185626E-03
      0.345000          0.178603E-03
      0.350000          0.171685E-03
      0.355000          0.164954E-03
      0.360000          0.158490E-03
      0.365000          0.152359E-03
      0.370000          0.146618E-03
      0.375000          0.141308E-03
      0.380000          0.136458E-03
      0.385000          0.132082E-03
      0.390000          0.128183E-03
      0.395000          0.124750E-03
      0.400000          0.121764E-03
      0.405000          0.119195E-03
      0.410000          0.117008E-03
      0.415000          0.115157E-03
      0.420000          0.113595E-03
      0.425000          0.112267E-03
      0.430000          0.111118E-03
      0.435000          0.110090E-03
      0.440000          0.109127E-03
      0.445000          0.108176E-03
      0.450000          0.107189E-03
      0.455000          0.106124E-03
      0.460000          0.104952E-03
      0.465000          0.103651E-03
      0.470000          0.102215E-03
      0.475000          0.100645E-03
      0.480000          0.989594E-04
      0.485000          0.971823E-04
      0.490000          0.953478E-04
      0.495000          0.934946E-04
      0.500000          0.916635E-04
