 I_abs(s)[cm^-1]/c[mg/ml]
       0.00000          0.139530E-01
      0.500000E-02      0.138703E-01
      0.100000E-01      0.136252E-01
      0.150000E-01      0.132276E-01
      0.200000E-01      0.126929E-01
      0.250000E-01      0.120415E-01
      0.300000E-01      0.112974E-01
      0.350000E-01      0.104868E-01
      0.400000E-01      0.963657E-02
      0.450000E-01      0.877307E-02
      0.500000E-01      0.792049E-02
      0.550000E-01      0.709994E-02
      0.600000E-01      0.632855E-02
      0.650000E-01      0.561904E-02
      0.700000E-01      0.497949E-02
      0.750000E-01      0.441352E-02
      0.800000E-01      0.392072E-02
      0.850000E-01      0.349727E-02
      0.900000E-01      0.313677E-02
      0.950000E-01      0.283107E-02
      0.100000          0.257116E-02
      0.105000          0.234794E-02
      0.110000          0.215292E-02
      0.115000          0.197866E-02
      0.120000          0.181917E-02
      0.125000          0.167004E-02
      0.130000          0.152838E-02
      0.135000          0.139274E-02
      0.140000          0.126278E-02
      0.145000          0.113902E-02
      0.150000          0.102249E-02
      0.155000          0.914386E-03
      0.160000          0.815845E-03
      0.165000          0.727711E-03
      0.170000          0.650412E-03
      0.175000          0.583908E-03
      0.180000          0.527696E-03
      0.185000          0.480884E-03
      0.190000          0.442287E-03
      0.195000          0.410558E-03
      0.200000          0.384307E-03
      0.205000          0.362215E-03
      0.210000          0.343124E-03
      0.215000          0.326092E-03
      0.220000          0.310425E-03
      0.225000          0.295672E-03
      0.230000          0.281599E-03
      0.235000          0.268149E-03
      0.240000          0.255387E-03
      0.245000          0.243449E-03
      0.250000          0.232490E-03
      0.255000          0.222652E-03
      0.260000          0.214030E-03
      0.265000          0.206664E-03
      0.270000          0.200532E-03
      0.275000          0.195561E-03
      0.280000          0.191640E-03
      0.285000          0.188635E-03
      0.290000          0.186404E-03
      0.295000          0.184812E-03
      0.300000          0.183739E-03
      0.305000          0.183083E-03
      0.310000          0.182761E-03
      0.315000          0.182702E-03
      0.320000          0.182844E-03
      0.325000          0.183122E-03
      0.330000          0.183467E-03
      0.335000          0.183798E-03
      0.340000          0.184020E-03
      0.345000          0.184032E-03
      0.350000          0.183724E-03
      0.355000          0.182991E-03
      0.360000          0.181739E-03
      0.365000          0.179893E-03
      0.370000          0.177408E-03
      0.375000          0.174269E-03
      0.380000          0.170502E-03
      0.385000          0.166165E-03
      0.390000          0.161351E-03
      0.395000          0.156180E-03
      0.400000          0.150788E-03
      0.405000          0.145321E-03
      0.410000          0.139921E-03
      0.415000          0.134717E-03
      0.420000          0.129817E-03
      0.425000          0.125302E-03
      0.430000          0.121223E-03
      0.435000          0.117597E-03
      0.440000          0.114412E-03
      0.445000          0.111631E-03
      0.450000          0.109197E-03
      0.455000          0.107042E-03
      0.460000          0.105095E-03
      0.465000          0.103287E-03
      0.470000          0.101562E-03
      0.475000          0.998766E-04
      0.480000          0.982076E-04
      0.485000          0.965497E-04
      0.490000          0.949154E-04
      0.495000          0.933315E-04
      0.500000          0.918344E-04
