 I_abs(s)[cm^-1]/c[mg/ml]
       0.00000          0.143843E-01
      0.500000E-02      0.143000E-01
      0.100000E-01      0.140501E-01
      0.150000E-01      0.136437E-01
      0.200000E-01      0.130955E-01
      0.250000E-01      0.124248E-01
      0.300000E-01      0.116545E-01
      0.350000E-01      0.108101E-01
      0.400000E-01      0.991813E-02
      0.450000E-01      0.900494E-02
      0.500000E-01      0.809551E-02
      0.550000E-01      0.721233E-02
      0.600000E-01      0.637451E-02
      0.650000E-01      0.559725E-02
      0.700000E-01      0.489141E-02
      0.750000E-01      0.426353E-02
      0.800000E-01      0.371596E-02
      0.850000E-01      0.324735E-02
      0.900000E-01      0.285319E-02
      0.950000E-01      0.252653E-02
      0.100000          0.225876E-02
      0.105000          0.204036E-02
      0.110000          0.186164E-02
      0.115000          0.171331E-02
      0.120000          0.158699E-02
      0.125000          0.147558E-02
      0.130000          0.137342E-02
      0.135000          0.127641E-02
      0.140000          0.118189E-02
      0.145000          0.108851E-02
      0.150000          0.996013E-03
      0.155000          0.904958E-03
      0.160000          0.816450E-03
      0.165000          0.731876E-03
      0.170000          0.652672E-03
      0.175000          0.580141E-03
      0.180000          0.515316E-03
      0.185000          0.458881E-03
      0.190000          0.411139E-03
      0.195000          0.372020E-03
      0.200000          0.341122E-03
      0.205000          0.317775E-03
      0.210000          0.301111E-03
      0.215000          0.290141E-03
      0.220000          0.283825E-03
      0.225000          0.281127E-03
      0.230000          0.281067E-03
      0.235000          0.282749E-03
      0.240000          0.285385E-03
      0.245000          0.288304E-03
      0.250000          0.290952E-03
      0.255000          0.292892E-03
      0.260000          0.293793E-03
      0.265000          0.293425E-03
      0.270000          0.291650E-03
      0.275000          0.288414E-03
      0.280000          0.283736E-03
      0.285000          0.277705E-03
      0.290000          0.270467E-03
      0.295000          0.262215E-03
      0.300000          0.253181E-03
      0.305000          0.243616E-03
      0.310000          0.233785E-03
      0.315000          0.223945E-03
      0.320000          0.214333E-03
      0.325000          0.205158E-03
      0.330000          0.196584E-03
      0.335000          0.188727E-03
      0.340000          0.181652E-03
      0.345000          0.175371E-03
      0.350000          0.169850E-03
      0.355000          0.165015E-03
      0.360000          0.160762E-03
      0.365000          0.156967E-03
      0.370000          0.153502E-03
      0.375000          0.150239E-03
      0.380000          0.147066E-03
      0.385000          0.143893E-03
      0.390000          0.140654E-03
      0.395000          0.137312E-03
      0.400000          0.133859E-03
      0.405000          0.130312E-03
      0.410000          0.126709E-03
      0.415000          0.123102E-03
      0.420000          0.119554E-03
      0.425000          0.116129E-03
      0.430000          0.112887E-03
      0.435000          0.109882E-03
      0.440000          0.107155E-03
      0.445000          0.104736E-03
      0.450000          0.102638E-03
      0.455000          0.100863E-03
      0.460000          0.993991E-04
      0.465000          0.982265E-04
      0.470000          0.973170E-04
      0.475000          0.966376E-04
      0.480000          0.961530E-04
      0.485000          0.958273E-04
      0.490000          0.956249E-04
      0.495000          0.955119E-04
      0.500000          0.954559E-04
