 I_abs(s)[cm^-1]/c[mg/ml]
       0.00000          0.147580E-01
      0.500000E-02      0.147079E-01
      0.100000E-01      0.145584E-01
      0.150000E-01      0.143128E-01
      0.200000E-01      0.139758E-01
      0.250000E-01      0.135542E-01
      0.300000E-01      0.130561E-01
      0.350000E-01      0.124910E-01
      0.400000E-01      0.118695E-01
      0.450000E-01      0.112026E-01
      0.500000E-01      0.105019E-01
      0.550000E-01      0.977887E-02
      0.600000E-01      0.904477E-02
      0.650000E-01      0.831029E-02
      0.700000E-01      0.758533E-02
      0.750000E-01      0.687879E-02
      0.800000E-01      0.619840E-02
      0.850000E-01      0.555063E-02
      0.900000E-01      0.494064E-02
      0.950000E-01      0.437225E-02
      0.100000          0.384800E-02
      0.105000          0.336921E-02
      0.110000          0.293611E-02
      0.115000          0.254794E-02
      0.120000          0.220313E-02
      0.125000          0.189944E-02
      0.130000          0.163416E-02
      0.135000          0.140419E-02
      0.140000          0.120627E-02
      0.145000          0.103704E-02
      0.150000          0.893213E-03
      0.155000          0.771607E-03
      0.160000          0.669248E-03
      0.165000          0.583409E-03
      0.170000          0.511641E-03
      0.175000          0.451780E-03
      0.180000          0.401946E-03
      0.185000          0.360532E-03
      0.190000          0.326176E-03
      0.195000          0.297736E-03
      0.200000          0.274259E-03
      0.205000          0.254951E-03
      0.210000          0.239148E-03
      0.215000          0.226291E-03
      0.220000          0.215901E-03
      0.225000          0.207568E-03
      0.230000          0.200931E-03
      0.235000          0.195676E-03
      0.240000          0.191525E-03
      0.245000          0.188236E-03
      0.250000          0.185599E-03
      0.255000          0.183441E-03
      0.260000          0.181619E-03
      0.265000          0.180025E-03
      0.270000          0.178582E-03
      0.275000          0.177242E-03
      0.280000          0.175983E-03
      0.285000          0.174804E-03
      0.290000          0.173718E-03
      0.295000          0.172749E-03
      0.300000          0.171925E-03
      0.305000          0.171272E-03
      0.310000          0.170807E-03
      0.315000          0.170539E-03
      0.320000          0.170460E-03
      0.325000          0.170548E-03
      0.330000          0.170766E-03
      0.335000          0.171062E-03
      0.340000          0.171372E-03
      0.345000          0.171623E-03
      0.350000          0.171741E-03
      0.355000          0.171648E-03
      0.360000          0.171274E-03
      0.365000          0.170555E-03
      0.370000          0.169442E-03
      0.375000          0.167899E-03
      0.380000          0.165909E-03
      0.385000          0.163472E-03
      0.390000          0.160605E-03
      0.395000          0.157344E-03
      0.400000          0.153737E-03
      0.405000          0.149844E-03
      0.410000          0.145735E-03
      0.415000          0.141482E-03
      0.420000          0.137162E-03
      0.425000          0.132847E-03
      0.430000          0.128602E-03
      0.435000          0.124488E-03
      0.440000          0.120554E-03
      0.445000          0.116836E-03
      0.450000          0.113360E-03
      0.455000          0.110142E-03
      0.460000          0.107183E-03
      0.465000          0.104478E-03
      0.470000          0.102012E-03
      0.475000          0.997656E-04
      0.480000          0.977151E-04
      0.485000          0.958349E-04
      0.490000          0.940997E-04
      0.495000          0.924858E-04
      0.500000          0.909727E-04
