 I_abs(s)[cm^-1]/c[mg/ml]
       0.00000          0.148221E-01
      0.500000E-02      0.147631E-01
      0.100000E-01      0.145873E-01
      0.150000E-01      0.142987E-01
      0.200000E-01      0.139032E-01
      0.250000E-01      0.134095E-01
      0.300000E-01      0.128278E-01
      0.350000E-01      0.121700E-01
      0.400000E-01      0.114495E-01
      0.450000E-01      0.106801E-01
      0.500000E-01      0.987650E-02
      0.550000E-01      0.905313E-02
      0.600000E-01      0.822415E-02
      0.650000E-01      0.740296E-02
      0.700000E-01      0.660191E-02
      0.750000E-01      0.583199E-02
      0.800000E-01      0.510262E-02
      0.850000E-01      0.442153E-02
      0.900000E-01      0.379463E-02
      0.950000E-01      0.322602E-02
      0.100000          0.271798E-02
      0.105000          0.227116E-02
      0.110000          0.188460E-02
      0.115000          0.155603E-02
      0.120000          0.128202E-02
      0.125000          0.105820E-02
      0.130000          0.879559E-03
      0.135000          0.740644E-03
      0.140000          0.635796E-03
      0.145000          0.559365E-03
      0.150000          0.505894E-03
      0.155000          0.470276E-03
      0.160000          0.447876E-03
      0.165000          0.434618E-03
      0.170000          0.427045E-03
      0.175000          0.422337E-03
      0.180000          0.418310E-03
      0.185000          0.413379E-03
      0.190000          0.406512E-03
      0.195000          0.397159E-03
      0.200000          0.385178E-03
      0.205000          0.370747E-03
      0.210000          0.354287E-03
      0.215000          0.336376E-03
      0.220000          0.317678E-03
      0.225000          0.298876E-03
      0.230000          0.280620E-03
      0.235000          0.263484E-03
      0.240000          0.247937E-03
      0.245000          0.234323E-03
      0.250000          0.222855E-03
      0.255000          0.213616E-03
      0.260000          0.206571E-03
      0.265000          0.201580E-03
      0.270000          0.198417E-03
      0.275000          0.196799E-03
      0.280000          0.196399E-03
      0.285000          0.196875E-03
      0.290000          0.197888E-03
      0.295000          0.199118E-03
      0.300000          0.200281E-03
      0.305000          0.201135E-03
      0.310000          0.201488E-03
      0.315000          0.201205E-03
      0.320000          0.200199E-03
      0.325000          0.198437E-03
      0.330000          0.195929E-03
      0.335000          0.192721E-03
      0.340000          0.188894E-03
      0.345000          0.184547E-03
      0.350000          0.179794E-03
      0.355000          0.174757E-03
      0.360000          0.169556E-03
      0.365000          0.164307E-03
      0.370000          0.159114E-03
      0.375000          0.154070E-03
      0.380000          0.149251E-03
      0.385000          0.144716E-03
      0.390000          0.140510E-03
      0.395000          0.136659E-03
      0.400000          0.133178E-03
      0.405000          0.130067E-03
      0.410000          0.127317E-03
      0.415000          0.124911E-03
      0.420000          0.122824E-03
      0.425000          0.121028E-03
      0.430000          0.119494E-03
      0.435000          0.118189E-03
      0.440000          0.117083E-03
      0.445000          0.116146E-03
      0.450000          0.115350E-03
      0.455000          0.114669E-03
      0.460000          0.114082E-03
      0.465000          0.113567E-03
      0.470000          0.113108E-03
      0.475000          0.112689E-03
      0.480000          0.112298E-03
      0.485000          0.111923E-03
      0.490000          0.111557E-03
      0.495000          0.111190E-03
      0.500000          0.110816E-03
