 I_abs(s)[cm^-1]/c[mg/ml]
       0.00000          0.133832E-01
      0.500000E-02      0.132700E-01
      0.100000E-01      0.129362E-01
      0.150000E-01      0.123990E-01
      0.200000E-01      0.116855E-01
      0.250000E-01      0.108308E-01
      0.300000E-01      0.987471E-02
      0.350000E-01      0.885960E-02
      0.400000E-01      0.782692E-02
      0.450000E-01      0.681474E-02
      0.500000E-01      0.585554E-02
      0.550000E-01      0.497468E-02
      0.600000E-01      0.418966E-02
      0.650000E-01      0.351006E-02
      0.700000E-01      0.293812E-02
      0.750000E-01      0.246984E-02
      0.800000E-01      0.209645E-02
      0.850000E-01      0.180597E-02
      0.900000E-01      0.158479E-02
      0.950000E-01      0.141902E-02
      0.100000          0.129560E-02
      0.105000          0.120307E-02
      0.110000          0.113200E-02
      0.115000          0.107507E-02
      0.120000          0.102700E-02
      0.125000          0.984216E-03
      0.130000          0.944540E-03
      0.135000          0.906764E-03
      0.140000          0.870332E-03
      0.145000          0.835071E-03
      0.150000          0.801001E-03
      0.155000          0.768227E-03
      0.160000          0.736876E-03
      0.165000          0.707080E-03
      0.170000          0.678967E-03
      0.175000          0.652646E-03
      0.180000          0.628191E-03
      0.185000          0.605611E-03
      0.190000          0.584818E-03
      0.195000          0.565609E-03
      0.200000          0.547658E-03
      0.205000          0.530539E-03
      0.210000          0.513769E-03
      0.215000          0.496875E-03
      0.220000          0.479465E-03
      0.225000          0.461301E-03
      0.230000          0.442354E-03
      0.235000          0.422826E-03
      0.240000          0.403142E-03
      0.245000          0.383906E-03
      0.250000          0.365819E-03
      0.255000          0.349588E-03
      0.260000          0.335822E-03
      0.265000          0.324938E-03
      0.270000          0.317096E-03
      0.275000          0.312167E-03
      0.280000          0.309730E-03
      0.285000          0.309123E-03
      0.290000          0.309516E-03
      0.295000          0.310005E-03
      0.300000          0.309715E-03
      0.305000          0.307902E-03
      0.310000          0.304025E-03
      0.315000          0.297802E-03
      0.320000          0.289224E-03
      0.325000          0.278544E-03
      0.330000          0.266231E-03
      0.335000          0.252908E-03
      0.340000          0.239271E-03
      0.345000          0.226018E-03
      0.350000          0.213771E-03
      0.355000          0.203023E-03
      0.360000          0.194105E-03
      0.365000          0.187162E-03
      0.370000          0.182169E-03
      0.375000          0.178946E-03
      0.380000          0.177196E-03
      0.385000          0.176546E-03
      0.390000          0.176594E-03
      0.395000          0.176945E-03
      0.400000          0.177247E-03
      0.405000          0.177219E-03
      0.410000          0.176660E-03
      0.415000          0.175457E-03
      0.420000          0.173580E-03
      0.425000          0.171071E-03
      0.430000          0.168028E-03
      0.435000          0.164585E-03
      0.440000          0.160896E-03
      0.445000          0.157111E-03
      0.450000          0.153364E-03
      0.455000          0.149760E-03
      0.460000          0.146367E-03
      0.465000          0.143212E-03
      0.470000          0.140284E-03
      0.475000          0.137536E-03
      0.480000          0.134897E-03
      0.485000          0.132279E-03
      0.490000          0.129592E-03
      0.495000          0.126754E-03
      0.500000          0.123702E-03
