 I_abs(s)[cm^-1]/c[mg/ml]
       0.00000          0.144634E-01
      0.500000E-02      0.143753E-01
      0.100000E-01      0.141146E-01
      0.150000E-01      0.136913E-01
      0.200000E-01      0.131217E-01
      0.250000E-01      0.124271E-01
      0.300000E-01      0.116324E-01
      0.350000E-01      0.107651E-01
      0.400000E-01      0.985326E-02
      0.450000E-01      0.892448E-02
      0.500000E-01      0.800412E-02
      0.550000E-01      0.711443E-02
      0.600000E-01      0.627366E-02
      0.650000E-01      0.549558E-02
      0.700000E-01      0.478932E-02
      0.750000E-01      0.415955E-02
      0.800000E-01      0.360693E-02
      0.850000E-01      0.312873E-02
      0.900000E-01      0.271964E-02
      0.950000E-01      0.237258E-02
      0.100000          0.207951E-02
      0.105000          0.183220E-02
      0.110000          0.162278E-02
      0.115000          0.144422E-02
      0.120000          0.129058E-02
      0.125000          0.115713E-02
      0.130000          0.104033E-02
      0.135000          0.937677E-03
      0.140000          0.847477E-03
      0.145000          0.768640E-03
      0.150000          0.700413E-03
      0.155000          0.642179E-03
      0.160000          0.593289E-03
      0.165000          0.552966E-03
      0.170000          0.520263E-03
      0.175000          0.494073E-03
      0.180000          0.473182E-03
      0.185000          0.456351E-03
      0.190000          0.442396E-03
      0.195000          0.430269E-03
      0.200000          0.419120E-03
      0.205000          0.408330E-03
      0.210000          0.397518E-03
      0.215000          0.386521E-03
      0.220000          0.375356E-03
      0.225000          0.364162E-03
      0.230000          0.353141E-03
      0.235000          0.342505E-03
      0.240000          0.332426E-03
      0.245000          0.323005E-03
      0.250000          0.314256E-03
      0.255000          0.306108E-03
      0.260000          0.298419E-03
      0.265000          0.291000E-03
      0.270000          0.283647E-03
      0.275000          0.276167E-03
      0.280000          0.268409E-03
      0.285000          0.260280E-03
      0.290000          0.251754E-03
      0.295000          0.242876E-03
      0.300000          0.233755E-03
      0.305000          0.224543E-03
      0.310000          0.215424E-03
      0.315000          0.206587E-03
      0.320000          0.198210E-03
      0.325000          0.190443E-03
      0.330000          0.183396E-03
      0.335000          0.177131E-03
      0.340000          0.171661E-03
      0.345000          0.166955E-03
      0.350000          0.162940E-03
      0.355000          0.159518E-03
      0.360000          0.156570E-03
      0.365000          0.153970E-03
      0.370000          0.151597E-03
      0.375000          0.149338E-03
      0.380000          0.147098E-03
      0.385000          0.144804E-03
      0.390000          0.142404E-03
      0.395000          0.139871E-03
      0.400000          0.137199E-03
      0.405000          0.134401E-03
      0.410000          0.131502E-03
      0.415000          0.128540E-03
      0.420000          0.125560E-03
      0.425000          0.122607E-03
      0.430000          0.119724E-03
      0.435000          0.116950E-03
      0.440000          0.114314E-03
      0.445000          0.111837E-03
      0.450000          0.109528E-03
      0.455000          0.107386E-03
      0.460000          0.105402E-03
      0.465000          0.103559E-03
      0.470000          0.101838E-03
      0.475000          0.100217E-03
      0.480000          0.986790E-04
      0.485000          0.972112E-04
      0.490000          0.958086E-04
      0.495000          0.944748E-04
      0.500000          0.932223E-04
