 I_abs(s)[cm^-1]/c[mg/ml]
       0.00000          0.144238E-01
      0.500000E-02      0.143491E-01
      0.100000E-01      0.141270E-01
      0.150000E-01      0.137645E-01
      0.200000E-01      0.132724E-01
      0.250000E-01      0.126651E-01
      0.300000E-01      0.119601E-01
      0.350000E-01      0.111773E-01
      0.400000E-01      0.103376E-01
      0.450000E-01      0.946269E-02
      0.500000E-01      0.857360E-02
      0.550000E-01      0.769038E-02
      0.600000E-01      0.683112E-02
      0.650000E-01      0.601149E-02
      0.700000E-01      0.524432E-02
      0.750000E-01      0.453935E-02
      0.800000E-01      0.390313E-02
      0.850000E-01      0.333918E-02
      0.900000E-01      0.284814E-02
      0.950000E-01      0.242813E-02
      0.100000          0.207519E-02
      0.105000          0.178370E-02
      0.110000          0.154696E-02
      0.115000          0.135756E-02
      0.120000          0.120793E-02
      0.125000          0.109066E-02
      0.130000          0.998841E-03
      0.135000          0.926290E-03
      0.140000          0.867709E-03
      0.145000          0.818754E-03
      0.150000          0.776042E-03
      0.155000          0.737089E-03
      0.160000          0.700217E-03
      0.165000          0.664426E-03
      0.170000          0.629247E-03
      0.175000          0.594605E-03
      0.180000          0.560682E-03
      0.185000          0.527798E-03
      0.190000          0.496323E-03
      0.195000          0.466602E-03
      0.200000          0.438911E-03
      0.205000          0.413435E-03
      0.210000          0.390263E-03
      0.215000          0.369392E-03
      0.220000          0.350748E-03
      0.225000          0.334204E-03
      0.230000          0.319602E-03
      0.235000          0.306768E-03
      0.240000          0.295531E-03
      0.245000          0.285724E-03
      0.250000          0.277194E-03
      0.255000          0.269798E-03
      0.260000          0.263398E-03
      0.265000          0.257861E-03
      0.270000          0.253049E-03
      0.275000          0.248820E-03
      0.280000          0.245027E-03
      0.285000          0.241516E-03
      0.290000          0.238136E-03
      0.295000          0.234740E-03
      0.300000          0.231198E-03
      0.305000          0.227398E-03
      0.310000          0.223259E-03
      0.315000          0.218733E-03
      0.320000          0.213807E-03
      0.325000          0.208504E-03
      0.330000          0.202882E-03
      0.335000          0.197023E-03
      0.340000          0.191033E-03
      0.345000          0.185026E-03
      0.350000          0.179120E-03
      0.355000          0.173425E-03
      0.360000          0.168036E-03
      0.365000          0.163028E-03
      0.370000          0.158450E-03
      0.375000          0.154323E-03
      0.380000          0.150644E-03
      0.385000          0.147385E-03
      0.390000          0.144498E-03
      0.395000          0.141922E-03
      0.400000          0.139589E-03
      0.405000          0.137425E-03
      0.410000          0.135363E-03
      0.415000          0.133343E-03
      0.420000          0.131315E-03
      0.425000          0.129243E-03
      0.430000          0.127107E-03
      0.435000          0.124899E-03
      0.440000          0.122622E-03
      0.445000          0.120294E-03
      0.450000          0.117936E-03
      0.455000          0.115577E-03
      0.460000          0.113246E-03
      0.465000          0.110973E-03
      0.470000          0.108785E-03
      0.475000          0.106708E-03
      0.480000          0.104759E-03
      0.485000          0.102953E-03
      0.490000          0.101298E-03
      0.495000          0.997994E-04
      0.500000          0.984557E-04
