 I_abs(s)[cm^-1]/c[mg/ml]
       0.00000          0.144367E-01
      0.500000E-02      0.143741E-01
      0.100000E-01      0.141879E-01
      0.150000E-01      0.138837E-01
      0.200000E-01      0.134701E-01
      0.250000E-01      0.129587E-01
      0.300000E-01      0.123636E-01
      0.350000E-01      0.117004E-01
      0.400000E-01      0.109859E-01
      0.450000E-01      0.102372E-01
      0.500000E-01      0.947089E-02
      0.550000E-01      0.870276E-02
      0.600000E-01      0.794699E-02
      0.650000E-01      0.721589E-02
      0.700000E-01      0.651952E-02
      0.750000E-01      0.586563E-02
      0.800000E-01      0.525959E-02
      0.850000E-01      0.470450E-02
      0.900000E-01      0.420141E-02
      0.950000E-01      0.374962E-02
      0.100000          0.334697E-02
      0.105000          0.299022E-02
      0.110000          0.267540E-02
      0.115000          0.239817E-02
      0.120000          0.215405E-02
      0.125000          0.193873E-02
      0.130000          0.174821E-02
      0.135000          0.157890E-02
      0.140000          0.142774E-02
      0.145000          0.129215E-02
      0.150000          0.117007E-02
      0.155000          0.105982E-02
      0.160000          0.960116E-03
      0.165000          0.869916E-03
      0.170000          0.788390E-03
      0.175000          0.714832E-03
      0.180000          0.648610E-03
      0.185000          0.589134E-03
      0.190000          0.535827E-03
      0.195000          0.488124E-03
      0.200000          0.445471E-03
      0.205000          0.407341E-03
      0.210000          0.373242E-03
      0.215000          0.342733E-03
      0.220000          0.315437E-03
      0.225000          0.291042E-03
      0.230000          0.269301E-03
      0.235000          0.250028E-03
      0.240000          0.233081E-03
      0.245000          0.218352E-03
      0.250000          0.205749E-03
      0.255000          0.195177E-03
      0.260000          0.186526E-03
      0.265000          0.179663E-03
      0.270000          0.174422E-03
      0.275000          0.170605E-03
      0.280000          0.167989E-03
      0.285000          0.166329E-03
      0.290000          0.165373E-03
      0.295000          0.164871E-03
      0.300000          0.164591E-03
      0.305000          0.164329E-03
      0.310000          0.163919E-03
      0.315000          0.163237E-03
      0.320000          0.162209E-03
      0.325000          0.160804E-03
      0.330000          0.159035E-03
      0.335000          0.156950E-03
      0.340000          0.154622E-03
      0.345000          0.152141E-03
      0.350000          0.149604E-03
      0.355000          0.147102E-03
      0.360000          0.144716E-03
      0.365000          0.142508E-03
      0.370000          0.140517E-03
      0.375000          0.138761E-03
      0.380000          0.137233E-03
      0.385000          0.135907E-03
      0.390000          0.134739E-03
      0.395000          0.133677E-03
      0.400000          0.132663E-03
      0.405000          0.131638E-03
      0.410000          0.130552E-03
      0.415000          0.129360E-03
      0.420000          0.128032E-03
      0.425000          0.126551E-03
      0.430000          0.124911E-03
      0.435000          0.123121E-03
      0.440000          0.121197E-03
      0.445000          0.119164E-03
      0.450000          0.117052E-03
      0.455000          0.114888E-03
      0.460000          0.112702E-03
      0.465000          0.110518E-03
      0.470000          0.108353E-03
      0.475000          0.106223E-03
      0.480000          0.104133E-03
      0.485000          0.102086E-03
      0.490000          0.100082E-03
      0.495000          0.981152E-04
      0.500000          0.961825E-04
