 I_abs(s)[cm^-1]/c[mg/ml]
       0.00000          0.136881E-01
      0.500000E-02      0.136045E-01
      0.100000E-01      0.133570E-01
      0.150000E-01      0.129560E-01
      0.200000E-01      0.124178E-01
      0.250000E-01      0.117637E-01
      0.300000E-01      0.110187E-01
      0.350000E-01      0.102096E-01
      0.400000E-01      0.936392E-02
      0.450000E-01      0.850793E-02
      0.500000E-01      0.766548E-02
      0.550000E-01      0.685694E-02
      0.600000E-01      0.609847E-02
      0.650000E-01      0.540167E-02
      0.700000E-01      0.477361E-02
      0.750000E-01      0.421711E-02
      0.800000E-01      0.373133E-02
      0.850000E-01      0.331246E-02
      0.900000E-01      0.295457E-02
      0.950000E-01      0.265043E-02
      0.100000          0.239221E-02
      0.105000          0.217215E-02
      0.110000          0.198307E-02
      0.115000          0.181865E-02
      0.120000          0.167365E-02
      0.125000          0.154395E-02
      0.130000          0.142646E-02
      0.135000          0.131904E-02
      0.140000          0.122026E-02
      0.145000          0.112928E-02
      0.150000          0.104564E-02
      0.155000          0.969083E-03
      0.160000          0.899474E-03
      0.165000          0.836670E-03
      0.170000          0.780473E-03
      0.175000          0.730591E-03
      0.180000          0.686618E-03
      0.185000          0.648041E-03
      0.190000          0.614245E-03
      0.195000          0.584541E-03
      0.200000          0.558189E-03
      0.205000          0.534437E-03
      0.210000          0.512553E-03
      0.215000          0.491867E-03
      0.220000          0.471803E-03
      0.225000          0.451913E-03
      0.230000          0.431893E-03
      0.235000          0.411598E-03
      0.240000          0.391036E-03
      0.245000          0.370346E-03
      0.250000          0.349778E-03
      0.255000          0.329644E-03
      0.260000          0.310283E-03
      0.265000          0.292012E-03
      0.270000          0.275094E-03
      0.275000          0.259707E-03
      0.280000          0.245930E-03
      0.285000          0.233741E-03
      0.290000          0.223027E-03
      0.295000          0.213606E-03
      0.300000          0.205256E-03
      0.305000          0.197742E-03
      0.310000          0.190843E-03
      0.315000          0.184378E-03
      0.320000          0.178215E-03
      0.325000          0.172280E-03
      0.330000          0.166549E-03
      0.335000          0.161040E-03
      0.340000          0.155797E-03
      0.345000          0.150876E-03
      0.350000          0.146325E-03
      0.355000          0.142180E-03
      0.360000          0.138452E-03
      0.365000          0.135129E-03
      0.370000          0.132184E-03
      0.375000          0.129573E-03
      0.380000          0.127251E-03
      0.385000          0.125178E-03
      0.390000          0.123322E-03
      0.395000          0.121665E-03
      0.400000          0.120200E-03
      0.405000          0.118930E-03
      0.410000          0.117859E-03
      0.415000          0.116987E-03
      0.420000          0.116303E-03
      0.425000          0.115784E-03
      0.430000          0.115387E-03
      0.435000          0.115057E-03
      0.440000          0.114727E-03
      0.445000          0.114328E-03
      0.450000          0.113793E-03
      0.455000          0.113064E-03
      0.460000          0.112101E-03
      0.465000          0.110884E-03
      0.470000          0.109412E-03
      0.475000          0.107705E-03
      0.480000          0.105798E-03
      0.485000          0.103735E-03
      0.490000          0.101564E-03
      0.495000          0.993321E-04
      0.500000          0.970790E-04
