 I_abs(s)[cm^-1]/c[mg/ml]
       0.00000          0.143342E-01
      0.500000E-02      0.142758E-01
      0.100000E-01      0.141021E-01
      0.150000E-01      0.138171E-01
      0.200000E-01      0.134274E-01
      0.250000E-01      0.129419E-01
      0.300000E-01      0.123714E-01
      0.350000E-01      0.117285E-01
      0.400000E-01      0.110269E-01
      0.450000E-01      0.102812E-01
      0.500000E-01      0.950628E-02
      0.550000E-01      0.871678E-02
      0.600000E-01      0.792686E-02
      0.650000E-01      0.714972E-02
      0.700000E-01      0.639726E-02
      0.750000E-01      0.567979E-02
      0.800000E-01      0.500590E-02
      0.850000E-01      0.438227E-02
      0.900000E-01      0.381364E-02
      0.950000E-01      0.330284E-02
      0.100000          0.285090E-02
      0.105000          0.245714E-02
      0.110000          0.211946E-02
      0.115000          0.183450E-02
      0.120000          0.159792E-02
      0.125000          0.140469E-02
      0.130000          0.124934E-02
      0.135000          0.112619E-02
      0.140000          0.102964E-02
      0.145000          0.954323E-03
      0.150000          0.895272E-03
      0.155000          0.848075E-03
      0.160000          0.808937E-03
      0.165000          0.774736E-03
      0.170000          0.743031E-03
      0.175000          0.712036E-03
      0.180000          0.680578E-03
      0.185000          0.648019E-03
      0.190000          0.614176E-03
      0.195000          0.579225E-03
      0.200000          0.543604E-03
      0.205000          0.507921E-03
      0.210000          0.472869E-03
      0.215000          0.439152E-03
      0.220000          0.407417E-03
      0.225000          0.378215E-03
      0.230000          0.351962E-03
      0.235000          0.328927E-03
      0.240000          0.309222E-03
      0.245000          0.292814E-03
      0.250000          0.279534E-03
      0.255000          0.269107E-03
      0.260000          0.261173E-03
      0.265000          0.255319E-03
      0.270000          0.251106E-03
      0.275000          0.248094E-03
      0.280000          0.245869E-03
      0.285000          0.244057E-03
      0.290000          0.242339E-03
      0.295000          0.240462E-03
      0.300000          0.238239E-03
      0.305000          0.235550E-03
      0.310000          0.232338E-03
      0.315000          0.228600E-03
      0.320000          0.224378E-03
      0.325000          0.219747E-03
      0.330000          0.214807E-03
      0.335000          0.209666E-03
      0.340000          0.204438E-03
      0.345000          0.199228E-03
      0.350000          0.194129E-03
      0.355000          0.189216E-03
      0.360000          0.184544E-03
      0.365000          0.180144E-03
      0.370000          0.176030E-03
      0.375000          0.172193E-03
      0.380000          0.168611E-03
      0.385000          0.165246E-03
      0.390000          0.162056E-03
      0.395000          0.158990E-03
      0.400000          0.156001E-03
      0.405000          0.153040E-03
      0.410000          0.150067E-03
      0.415000          0.147049E-03
      0.420000          0.143961E-03
      0.425000          0.140789E-03
      0.430000          0.137528E-03
      0.435000          0.134181E-03
      0.440000          0.130761E-03
      0.445000          0.127286E-03
      0.450000          0.123779E-03
      0.455000          0.120266E-03
      0.460000          0.116775E-03
      0.465000          0.113331E-03
      0.470000          0.109961E-03
      0.475000          0.106685E-03
      0.480000          0.103522E-03
      0.485000          0.100485E-03
      0.490000          0.975837E-04
      0.495000          0.948226E-04
      0.500000          0.922029E-04
