 I_abs(s)[cm^-1]/c[mg/ml]
       0.00000          0.122626E-01
      0.500000E-02      0.119917E-01
      0.100000E-01      0.112272E-01
      0.150000E-01      0.101002E-01
      0.200000E-01      0.878794E-02
      0.250000E-01      0.746739E-02
      0.300000E-01      0.627502E-02
      0.350000E-01      0.528435E-02
      0.400000E-01      0.450616E-02
      0.450000E-01      0.390700E-02
      0.500000E-01      0.343572E-02
      0.550000E-01      0.304696E-02
      0.600000E-01      0.271371E-02
      0.650000E-01      0.242747E-02
      0.700000E-01      0.218971E-02
      0.750000E-01      0.200137E-02
      0.800000E-01      0.185610E-02
      0.850000E-01      0.174006E-02
      0.900000E-01      0.163670E-02
      0.950000E-01      0.153329E-02
      0.100000          0.142516E-02
      0.105000          0.131577E-02
      0.110000          0.121315E-02
      0.115000          0.112484E-02
      0.120000          0.105405E-02
      0.125000          0.998574E-03
      0.130000          0.952416E-03
      0.135000          0.908863E-03
      0.140000          0.863220E-03
      0.145000          0.814082E-03
      0.150000          0.762923E-03
      0.155000          0.712643E-03
      0.160000          0.666005E-03
      0.165000          0.624686E-03
      0.170000          0.589103E-03
      0.175000          0.558780E-03
      0.180000          0.532835E-03
      0.185000          0.510330E-03
      0.190000          0.490412E-03
      0.195000          0.472381E-03
      0.200000          0.455751E-03
      0.205000          0.440332E-03
      0.210000          0.426206E-03
      0.215000          0.413570E-03
      0.220000          0.402470E-03
      0.225000          0.392596E-03
      0.230000          0.383287E-03
      0.235000          0.373785E-03
      0.240000          0.363587E-03
      0.245000          0.352689E-03
      0.250000          0.341528E-03
      0.255000          0.330632E-03
      0.260000          0.320205E-03
      0.265000          0.309890E-03
      0.270000          0.298915E-03
      0.275000          0.286549E-03
      0.280000          0.272622E-03
      0.285000          0.257770E-03
      0.290000          0.243234E-03
      0.295000          0.230297E-03
      0.300000          0.219661E-03
      0.305000          0.211133E-03
      0.310000          0.203805E-03
      0.315000          0.196642E-03
      0.320000          0.189145E-03
      0.325000          0.181688E-03
      0.330000          0.175320E-03
      0.335000          0.171125E-03
      0.340000          0.169479E-03
      0.345000          0.169638E-03
      0.350000          0.169913E-03
      0.355000          0.168367E-03
      0.360000          0.163707E-03
      0.365000          0.155908E-03
      0.370000          0.146271E-03
      0.375000          0.136859E-03
      0.380000          0.129616E-03
      0.385000          0.125568E-03
      0.390000          0.124483E-03
      0.395000          0.125098E-03
      0.400000          0.125783E-03
      0.405000          0.125268E-03
      0.410000          0.123121E-03
      0.415000          0.119771E-03
      0.420000          0.116143E-03
      0.425000          0.113100E-03
      0.430000          0.111012E-03
      0.435000          0.109610E-03
      0.440000          0.108180E-03
      0.445000          0.105965E-03
      0.450000          0.102549E-03
      0.455000          0.980655E-04
      0.460000          0.931287E-04
      0.465000          0.885571E-04
      0.470000          0.850182E-04
      0.475000          0.827628E-04
      0.480000          0.815564E-04
      0.485000          0.808211E-04
      0.490000          0.799090E-04
      0.495000          0.783779E-04
      0.500000          0.761482E-04
