 I_abs(s)[cm^-1]/c[mg/ml]
       0.00000          0.119587E-01
      0.500000E-02      0.117029E-01
      0.100000E-01      0.109746E-01
      0.150000E-01      0.988240E-02
      0.200000E-01      0.857889E-02
      0.250000E-01      0.722754E-02
      0.300000E-01      0.597001E-02
      0.350000E-01      0.490283E-02
      0.400000E-01      0.406821E-02
      0.450000E-01      0.345920E-02
      0.500000E-01      0.303508E-02
      0.550000E-01      0.274075E-02
      0.600000E-01      0.252378E-02
      0.650000E-01      0.234500E-02
      0.700000E-01      0.218158E-02
      0.750000E-01      0.202412E-02
      0.800000E-01      0.187114E-02
      0.850000E-01      0.172389E-02
      0.900000E-01      0.158356E-02
      0.950000E-01      0.145090E-02
      0.100000          0.132731E-02
      0.105000          0.121580E-02
      0.110000          0.112075E-02
      0.115000          0.104637E-02
      0.120000          0.994508E-03
      0.125000          0.963103E-03
      0.130000          0.945961E-03
      0.135000          0.934224E-03
      0.140000          0.918887E-03
      0.145000          0.893368E-03
      0.150000          0.855157E-03
      0.155000          0.806015E-03
      0.160000          0.750812E-03
      0.165000          0.695633E-03
      0.170000          0.645908E-03
      0.175000          0.605177E-03
      0.180000          0.574719E-03
      0.185000          0.553879E-03
      0.190000          0.540720E-03
      0.195000          0.532658E-03
      0.200000          0.526902E-03
      0.205000          0.520747E-03
      0.210000          0.511826E-03
      0.215000          0.498455E-03
      0.220000          0.480002E-03
      0.225000          0.457137E-03
      0.230000          0.431755E-03
      0.235000          0.406504E-03
      0.240000          0.383997E-03
      0.245000          0.365983E-03
      0.250000          0.352792E-03
      0.255000          0.343295E-03
      0.260000          0.335374E-03
      0.265000          0.326740E-03
      0.270000          0.315754E-03
      0.275000          0.301930E-03
      0.280000          0.285970E-03
      0.285000          0.269353E-03
      0.290000          0.253696E-03
      0.295000          0.240171E-03
      0.300000          0.229198E-03
      0.305000          0.220475E-03
      0.310000          0.213277E-03
      0.315000          0.206830E-03
      0.320000          0.200600E-03
      0.325000          0.194370E-03
      0.330000          0.188154E-03
      0.335000          0.182016E-03
      0.340000          0.175938E-03
      0.345000          0.169790E-03
      0.350000          0.163424E-03
      0.355000          0.156802E-03
      0.360000          0.150087E-03
      0.365000          0.143628E-03
      0.370000          0.137848E-03
      0.375000          0.133079E-03
      0.380000          0.129432E-03
      0.385000          0.126767E-03
      0.390000          0.124752E-03
      0.395000          0.122994E-03
      0.400000          0.121173E-03
      0.405000          0.119108E-03
      0.410000          0.116757E-03
      0.415000          0.114148E-03
      0.420000          0.111306E-03
      0.425000          0.108205E-03
      0.430000          0.104787E-03
      0.435000          0.101014E-03
      0.440000          0.969347E-04
      0.445000          0.927111E-04
      0.450000          0.885933E-04
      0.455000          0.848467E-04
      0.460000          0.816649E-04
      0.465000          0.791066E-04
      0.470000          0.770854E-04
      0.475000          0.754132E-04
      0.480000          0.738765E-04
      0.485000          0.723100E-04
      0.490000          0.706394E-04
      0.495000          0.688795E-04
      0.500000          0.670985E-04
