 I_abs(s)[cm^-1]/c[mg/ml]
       0.00000          0.124527E-01
      0.500000E-02      0.122153E-01
      0.100000E-01      0.115371E-01
      0.150000E-01      0.105127E-01
      0.200000E-01      0.927614E-02
      0.250000E-01      0.797255E-02
      0.300000E-01      0.673043E-02
      0.350000E-01      0.564078E-02
      0.400000E-01      0.474819E-02
      0.450000E-01      0.405402E-02
      0.500000E-01      0.352891E-02
      0.550000E-01      0.312935E-02
      0.600000E-01      0.281284E-02
      0.650000E-01      0.254777E-02
      0.700000E-01      0.231661E-02
      0.750000E-01      0.211325E-02
      0.800000E-01      0.193749E-02
      0.850000E-01      0.178947E-02
      0.900000E-01      0.166638E-02
      0.950000E-01      0.156215E-02
      0.100000          0.146943E-02
      0.105000          0.138219E-02
      0.110000          0.129764E-02
      0.115000          0.121640E-02
      0.120000          0.114122E-02
      0.125000          0.107487E-02
      0.130000          0.101845E-02
      0.135000          0.970790E-03
      0.140000          0.929056E-03
      0.145000          0.890160E-03
      0.150000          0.852132E-03
      0.155000          0.814781E-03
      0.160000          0.779379E-03
      0.165000          0.747603E-03
      0.170000          0.720327E-03
      0.175000          0.696890E-03
      0.180000          0.675189E-03
      0.185000          0.652534E-03
      0.190000          0.626838E-03
      0.195000          0.597552E-03
      0.200000          0.565929E-03
      0.205000          0.534515E-03
      0.210000          0.506108E-03
      0.215000          0.482680E-03
      0.220000          0.464704E-03
      0.225000          0.451142E-03
      0.230000          0.440021E-03
      0.235000          0.429286E-03
      0.240000          0.417529E-03
      0.245000          0.404305E-03
      0.250000          0.389959E-03
      0.255000          0.375160E-03
      0.260000          0.360394E-03
      0.265000          0.345720E-03
      0.270000          0.330853E-03
      0.275000          0.315514E-03
      0.280000          0.299803E-03
      0.285000          0.284364E-03
      0.290000          0.270228E-03
      0.295000          0.258397E-03
      0.300000          0.249349E-03
      0.305000          0.242733E-03
      0.310000          0.237408E-03
      0.315000          0.231838E-03
      0.320000          0.224668E-03
      0.325000          0.215255E-03
      0.330000          0.203902E-03
      0.335000          0.191717E-03
      0.340000          0.180148E-03
      0.345000          0.170409E-03
      0.350000          0.163039E-03
      0.355000          0.157761E-03
      0.360000          0.153686E-03
      0.365000          0.149752E-03
      0.370000          0.145180E-03
      0.375000          0.139779E-03
      0.380000          0.133959E-03
      0.385000          0.128489E-03
      0.390000          0.124126E-03
      0.395000          0.121270E-03
      0.400000          0.119809E-03
      0.405000          0.119177E-03
      0.410000          0.118592E-03
      0.415000          0.117353E-03
      0.420000          0.115065E-03
      0.425000          0.111719E-03
      0.430000          0.107622E-03
      0.435000          0.103240E-03
      0.440000          0.990236E-04
      0.445000          0.953122E-04
      0.450000          0.923067E-04
      0.455000          0.901098E-04
      0.460000          0.887690E-04
      0.465000          0.882848E-04
      0.470000          0.885745E-04
      0.475000          0.894178E-04
      0.480000          0.904333E-04
      0.485000          0.911223E-04
      0.490000          0.909832E-04
      0.495000          0.896608E-04
      0.500000          0.870694E-04
