 I_abs(s)[cm^-1]/c[mg/ml]
       0.00000          0.117083E-01
      0.500000E-02      0.114195E-01
      0.100000E-01      0.106055E-01
      0.150000E-01      0.940943E-02
      0.200000E-01      0.802734E-02
      0.250000E-01      0.665954E-02
      0.300000E-01      0.546522E-02
      0.350000E-01      0.453389E-02
      0.400000E-01      0.387969E-02
      0.450000E-01      0.345673E-02
      0.500000E-01      0.318727E-02
      0.550000E-01      0.299163E-02
      0.600000E-01      0.281036E-02
      0.650000E-01      0.261363E-02
      0.700000E-01      0.239840E-02
      0.750000E-01      0.217783E-02
      0.800000E-01      0.196902E-02
      0.850000E-01      0.178397E-02
      0.900000E-01      0.162615E-02
      0.950000E-01      0.149185E-02
      0.100000          0.137423E-02
      0.105000          0.126721E-02
      0.110000          0.116762E-02
      0.115000          0.107528E-02
      0.120000          0.991547E-03
      0.125000          0.917721E-03
      0.130000          0.853996E-03
      0.135000          0.799302E-03
      0.140000          0.751822E-03
      0.145000          0.709715E-03
      0.150000          0.671666E-03
      0.155000          0.637112E-03
      0.160000          0.606159E-03
      0.165000          0.579324E-03
      0.170000          0.557183E-03
      0.175000          0.540004E-03
      0.180000          0.527442E-03
      0.185000          0.518400E-03
      0.190000          0.511157E-03
      0.195000          0.503794E-03
      0.200000          0.494791E-03
      0.205000          0.483563E-03
      0.210000          0.470644E-03
      0.215000          0.457395E-03
      0.220000          0.445309E-03
      0.225000          0.435225E-03
      0.230000          0.426824E-03
      0.235000          0.418688E-03
      0.240000          0.408901E-03
      0.245000          0.395925E-03
      0.250000          0.379328E-03
      0.255000          0.359995E-03
      0.260000          0.339750E-03
      0.265000          0.320558E-03
      0.270000          0.303727E-03
      0.275000          0.289473E-03
      0.280000          0.277046E-03
      0.285000          0.265307E-03
      0.290000          0.253423E-03
      0.295000          0.241338E-03
      0.300000          0.229781E-03
      0.305000          0.219838E-03
      0.310000          0.212335E-03
      0.315000          0.207344E-03
      0.320000          0.204075E-03
      0.325000          0.201171E-03
      0.330000          0.197270E-03
      0.335000          0.191552E-03
      0.340000          0.184032E-03
      0.345000          0.175480E-03
      0.350000          0.167054E-03
      0.355000          0.159807E-03
      0.360000          0.154304E-03
      0.365000          0.150490E-03
      0.370000          0.147807E-03
      0.375000          0.145495E-03
      0.380000          0.142912E-03
      0.385000          0.139748E-03
      0.390000          0.136072E-03
      0.395000          0.132217E-03
      0.400000          0.128597E-03
      0.405000          0.125522E-03
      0.410000          0.123095E-03
      0.415000          0.121208E-03
      0.420000          0.119612E-03
      0.425000          0.118034E-03
      0.430000          0.116268E-03
      0.435000          0.114227E-03
      0.440000          0.111931E-03
      0.445000          0.109456E-03
      0.450000          0.106871E-03
      0.455000          0.104194E-03
      0.460000          0.101386E-03
      0.465000          0.983849E-04
      0.470000          0.951562E-04
      0.475000          0.917401E-04
      0.480000          0.882608E-04
      0.485000          0.848957E-04
      0.490000          0.818135E-04
      0.495000          0.791090E-04
      0.500000          0.767640E-04
