 I_abs(s)[cm^-1]/c[mg/ml]
       0.00000          0.124307E-01
      0.500000E-02      0.122102E-01
      0.100000E-01      0.115744E-01
      0.150000E-01      0.105960E-01
      0.200000E-01      0.938238E-02
      0.250000E-01      0.805784E-02
      0.300000E-01      0.674430E-02
      0.350000E-01      0.554364E-02
      0.400000E-01      0.452540E-02
      0.450000E-01      0.372143E-02
      0.500000E-01      0.312792E-02
      0.550000E-01      0.271350E-02
      0.600000E-01      0.243099E-02
      0.650000E-01      0.222990E-02
      0.700000E-01      0.206695E-02
      0.750000E-01      0.191276E-02
      0.800000E-01      0.175379E-02
      0.850000E-01      0.159024E-02
      0.900000E-01      0.143099E-02
      0.950000E-01      0.128763E-02
      0.100000          0.116918E-02
      0.105000          0.107889E-02
      0.110000          0.101362E-02
      0.115000          0.965367E-03
      0.120000          0.924302E-03
      0.125000          0.881962E-03
      0.130000          0.833680E-03
      0.135000          0.779524E-03
      0.140000          0.723632E-03
      0.145000          0.672318E-03
      0.150000          0.631649E-03
      0.155000          0.605302E-03
      0.160000          0.593342E-03
      0.165000          0.592215E-03
      0.170000          0.595875E-03
      0.175000          0.597607E-03
      0.180000          0.591956E-03
      0.185000          0.576162E-03
      0.190000          0.550730E-03
      0.195000          0.519012E-03
      0.200000          0.486016E-03
      0.205000          0.456832E-03
      0.210000          0.435173E-03
      0.215000          0.422438E-03
      0.220000          0.417520E-03
      0.225000          0.417340E-03
      0.230000          0.417902E-03
      0.235000          0.415503E-03
      0.240000          0.407739E-03
      0.245000          0.394045E-03
      0.250000          0.375657E-03
      0.255000          0.355066E-03
      0.260000          0.335185E-03
      0.265000          0.318489E-03
      0.270000          0.306379E-03
      0.275000          0.298936E-03
      0.280000          0.295075E-03
      0.285000          0.293013E-03
      0.290000          0.290869E-03
      0.295000          0.287208E-03
      0.300000          0.281361E-03
      0.305000          0.273477E-03
      0.310000          0.264309E-03
      0.315000          0.254850E-03
      0.320000          0.245953E-03
      0.325000          0.238052E-03
      0.330000          0.231073E-03
      0.335000          0.224533E-03
      0.340000          0.217777E-03
      0.345000          0.210259E-03
      0.350000          0.201760E-03
      0.355000          0.192487E-03
      0.360000          0.183016E-03
      0.365000          0.174104E-03
      0.370000          0.166459E-03
      0.375000          0.160514E-03
      0.380000          0.156311E-03
      0.385000          0.153490E-03
      0.390000          0.151417E-03
      0.395000          0.149369E-03
      0.400000          0.146741E-03
      0.405000          0.143205E-03
      0.410000          0.138767E-03
      0.415000          0.133732E-03
      0.420000          0.128580E-03
      0.425000          0.123807E-03
      0.430000          0.119776E-03
      0.435000          0.116631E-03
      0.440000          0.114275E-03
      0.445000          0.112429E-03
      0.450000          0.110737E-03
      0.455000          0.108874E-03
      0.460000          0.106640E-03
      0.465000          0.103994E-03
      0.470000          0.101040E-03
      0.475000          0.979669E-04
      0.480000          0.949710E-04
      0.485000          0.921887E-04
      0.490000          0.896571E-04
      0.495000          0.873167E-04
      0.500000          0.850484E-04
