 I_abs(s)[cm^-1]/c[mg/ml]
       0.00000          0.118081E-01
      0.500000E-02      0.115210E-01
      0.100000E-01      0.107128E-01
      0.150000E-01      0.952832E-02
      0.200000E-01      0.816307E-02
      0.250000E-01      0.681217E-02
      0.300000E-01      0.562506E-02
      0.350000E-01      0.467989E-02
      0.400000E-01      0.398294E-02
      0.450000E-01      0.348862E-02
      0.500000E-01      0.312936E-02
      0.550000E-01      0.284313E-02
      0.600000E-01      0.258968E-02
      0.650000E-01      0.235322E-02
      0.700000E-01      0.213475E-02
      0.750000E-01      0.194085E-02
      0.800000E-01      0.177495E-02
      0.850000E-01      0.163451E-02
      0.900000E-01      0.151316E-02
      0.950000E-01      0.140515E-02
      0.100000          0.130843E-02
      0.105000          0.122479E-02
      0.110000          0.115720E-02
      0.115000          0.110652E-02
      0.120000          0.106950E-02
      0.125000          0.103928E-02
      0.130000          0.100788E-02
      0.135000          0.969333E-03
      0.140000          0.921666E-03
      0.145000          0.867047E-03
      0.150000          0.810166E-03
      0.155000          0.755956E-03
      0.160000          0.707785E-03
      0.165000          0.666809E-03
      0.170000          0.632459E-03
      0.175000          0.603460E-03
      0.180000          0.578680E-03
      0.185000          0.557416E-03
      0.190000          0.539144E-03
      0.195000          0.523110E-03
      0.200000          0.508157E-03
      0.205000          0.492958E-03
      0.210000          0.476506E-03
      0.215000          0.458555E-03
      0.220000          0.439722E-03
      0.225000          0.421155E-03
      0.230000          0.403964E-03
      0.235000          0.388669E-03
      0.240000          0.374966E-03
      0.245000          0.361874E-03
      0.250000          0.348180E-03
      0.255000          0.332947E-03
      0.260000          0.315862E-03
      0.265000          0.297324E-03
      0.270000          0.278274E-03
      0.275000          0.259887E-03
      0.280000          0.243262E-03
      0.285000          0.229189E-03
      0.290000          0.218048E-03
      0.295000          0.209791E-03
      0.300000          0.203994E-03
      0.305000          0.199957E-03
      0.310000          0.196816E-03
      0.315000          0.193696E-03
      0.320000          0.189866E-03
      0.325000          0.184871E-03
      0.330000          0.178607E-03
      0.335000          0.171305E-03
      0.340000          0.163444E-03
      0.345000          0.155593E-03
      0.350000          0.148264E-03
      0.355000          0.141794E-03
      0.360000          0.136296E-03
      0.365000          0.131686E-03
      0.370000          0.127756E-03
      0.375000          0.124269E-03
      0.380000          0.121031E-03
      0.385000          0.117937E-03
      0.390000          0.114976E-03
      0.395000          0.112193E-03
      0.400000          0.109655E-03
      0.405000          0.107409E-03
      0.410000          0.105455E-03
      0.415000          0.103739E-03
      0.420000          0.102163E-03
      0.425000          0.100598E-03
      0.430000          0.989004E-04
      0.435000          0.969368E-04
      0.440000          0.945998E-04
      0.445000          0.918290E-04
      0.450000          0.886257E-04
      0.455000          0.850599E-04
      0.460000          0.812639E-04
      0.465000          0.774141E-04
      0.470000          0.737040E-04
      0.475000          0.703174E-04
      0.480000          0.674063E-04
      0.485000          0.650785E-04
      0.490000          0.633890E-04
      0.495000          0.623337E-04
      0.500000          0.618412E-04
