 I_abs(s)[cm^-1]/c[mg/ml]
       0.00000          0.136512E-01
      0.500000E-02      0.135624E-01
      0.100000E-01      0.132996E-01
      0.150000E-01      0.128737E-01
      0.200000E-01      0.123017E-01
      0.250000E-01      0.116064E-01
      0.300000E-01      0.108140E-01
      0.350000E-01      0.995341E-02
      0.400000E-01      0.905395E-02
      0.450000E-01      0.814403E-02
      0.500000E-01      0.724966E-02
      0.550000E-01      0.639322E-02
      0.600000E-01      0.559266E-02
      0.650000E-01      0.486104E-02
      0.700000E-01      0.420644E-02
      0.750000E-01      0.363221E-02
      0.800000E-01      0.313754E-02
      0.850000E-01      0.271820E-02
      0.900000E-01      0.236744E-02
      0.950000E-01      0.207691E-02
      0.100000          0.183755E-02
      0.105000          0.164036E-02
      0.110000          0.147699E-02
      0.115000          0.134022E-02
      0.120000          0.122412E-02
      0.125000          0.112420E-02
      0.130000          0.103723E-02
      0.135000          0.961097E-03
      0.140000          0.894518E-03
      0.145000          0.836756E-03
      0.150000          0.787346E-03
      0.155000          0.745872E-03
      0.160000          0.711801E-03
      0.165000          0.684393E-03
      0.170000          0.662676E-03
      0.175000          0.645487E-03
      0.180000          0.631546E-03
      0.185000          0.619556E-03
      0.190000          0.608308E-03
      0.195000          0.596778E-03
      0.200000          0.584186E-03
      0.205000          0.570043E-03
      0.210000          0.554146E-03
      0.215000          0.536558E-03
      0.220000          0.517554E-03
      0.225000          0.497561E-03
      0.230000          0.477084E-03
      0.235000          0.456643E-03
      0.240000          0.436715E-03
      0.245000          0.417695E-03
      0.250000          0.399871E-03
      0.255000          0.383418E-03
      0.260000          0.368406E-03
      0.265000          0.354816E-03
      0.270000          0.342567E-03
      0.275000          0.331539E-03
      0.280000          0.321596E-03
      0.285000          0.312608E-03
      0.290000          0.304456E-03
      0.295000          0.297042E-03
      0.300000          0.290285E-03
      0.305000          0.284117E-03
      0.310000          0.278472E-03
      0.315000          0.273282E-03
      0.320000          0.268470E-03
      0.325000          0.263943E-03
      0.330000          0.259593E-03
      0.335000          0.255304E-03
      0.340000          0.250953E-03
      0.345000          0.246422E-03
      0.350000          0.241604E-03
      0.355000          0.236417E-03
      0.360000          0.230803E-03
      0.365000          0.224742E-03
      0.370000          0.218244E-03
      0.375000          0.211358E-03
      0.380000          0.204158E-03
      0.385000          0.196746E-03
      0.390000          0.189239E-03
      0.395000          0.181762E-03
      0.400000          0.174441E-03
      0.405000          0.167395E-03
      0.410000          0.160728E-03
      0.415000          0.154528E-03
      0.420000          0.148860E-03
      0.425000          0.143766E-03
      0.430000          0.139268E-03
      0.435000          0.135365E-03
      0.440000          0.132037E-03
      0.445000          0.129248E-03
      0.450000          0.126949E-03
      0.455000          0.125080E-03
      0.460000          0.123576E-03
      0.465000          0.122367E-03
      0.470000          0.121382E-03
      0.475000          0.120554E-03
      0.480000          0.119816E-03
      0.485000          0.119108E-03
      0.490000          0.118379E-03
      0.495000          0.117584E-03
      0.500000          0.116685E-03
