 I_abs(s)[cm^-1]/c[mg/ml]
       0.00000          0.140076E-01
      0.500000E-02      0.139314E-01
      0.100000E-01      0.137057E-01
      0.150000E-01      0.133389E-01
      0.200000E-01      0.128443E-01
      0.250000E-01      0.122395E-01
      0.300000E-01      0.115454E-01
      0.350000E-01      0.107847E-01
      0.400000E-01      0.998099E-02
      0.450000E-01      0.915751E-02
      0.500000E-01      0.833585E-02
      0.550000E-01      0.753513E-02
      0.600000E-01      0.677133E-02
      0.650000E-01      0.605677E-02
      0.700000E-01      0.540001E-02
      0.750000E-01      0.480588E-02
      0.800000E-01      0.427582E-02
      0.850000E-01      0.380840E-02
      0.900000E-01      0.339985E-02
      0.950000E-01      0.304480E-02
      0.100000          0.273687E-02
      0.105000          0.246938E-02
      0.110000          0.223577E-02
      0.115000          0.203008E-02
      0.120000          0.184718E-02
      0.125000          0.168292E-02
      0.130000          0.153413E-02
      0.135000          0.139858E-02
      0.140000          0.127482E-02
      0.145000          0.116196E-02
      0.150000          0.105953E-02
      0.155000          0.967216E-03
      0.160000          0.884771E-03
      0.165000          0.811855E-03
      0.170000          0.747973E-03
      0.175000          0.692453E-03
      0.180000          0.644452E-03
      0.185000          0.603003E-03
      0.190000          0.567073E-03
      0.195000          0.535628E-03
      0.200000          0.507700E-03
      0.205000          0.482437E-03
      0.210000          0.459137E-03
      0.215000          0.437275E-03
      0.220000          0.416494E-03
      0.225000          0.396596E-03
      0.230000          0.377517E-03
      0.235000          0.359290E-03
      0.240000          0.342012E-03
      0.245000          0.325812E-03
      0.250000          0.310820E-03
      0.255000          0.297140E-03
      0.260000          0.284842E-03
      0.265000          0.273946E-03
      0.270000          0.264423E-03
      0.275000          0.256194E-03
      0.280000          0.249140E-03
      0.285000          0.243109E-03
      0.290000          0.237928E-03
      0.295000          0.233408E-03
      0.300000          0.229363E-03
      0.305000          0.225613E-03
      0.310000          0.221995E-03
      0.315000          0.218370E-03
      0.320000          0.214628E-03
      0.325000          0.210693E-03
      0.330000          0.206521E-03
      0.335000          0.202103E-03
      0.340000          0.197459E-03
      0.345000          0.192636E-03
      0.350000          0.187696E-03
      0.355000          0.182715E-03
      0.360000          0.177771E-03
      0.365000          0.172936E-03
      0.370000          0.168274E-03
      0.375000          0.163830E-03
      0.380000          0.159630E-03
      0.385000          0.155681E-03
      0.390000          0.151974E-03
      0.395000          0.148483E-03
      0.400000          0.145174E-03
      0.405000          0.142010E-03
      0.410000          0.138954E-03
      0.415000          0.135977E-03
      0.420000          0.133059E-03
      0.425000          0.130192E-03
      0.430000          0.127379E-03
      0.435000          0.124633E-03
      0.440000          0.121973E-03
      0.445000          0.119425E-03
      0.450000          0.117009E-03
      0.455000          0.114746E-03
      0.460000          0.112645E-03
      0.465000          0.110710E-03
      0.470000          0.108932E-03
      0.475000          0.107296E-03
      0.480000          0.105779E-03
      0.485000          0.104354E-03
      0.490000          0.102990E-03
      0.495000          0.101659E-03
      0.500000          0.100338E-03
