 I_abs(s)[cm^-1]/c[mg/ml]
       0.00000          0.142346E-01
      0.500000E-02      0.141494E-01
      0.100000E-01      0.138972E-01
      0.150000E-01      0.134884E-01
      0.200000E-01      0.129391E-01
      0.250000E-01      0.122706E-01
      0.300000E-01      0.115082E-01
      0.350000E-01      0.106789E-01
      0.400000E-01      0.981082E-02
      0.450000E-01      0.893088E-02
      0.500000E-01      0.806384E-02
      0.550000E-01      0.723103E-02
      0.600000E-01      0.644956E-02
      0.650000E-01      0.573188E-02
      0.700000E-01      0.508563E-02
      0.750000E-01      0.451391E-02
      0.800000E-01      0.401575E-02
      0.850000E-01      0.358689E-02
      0.900000E-01      0.322060E-02
      0.950000E-01      0.290857E-02
      0.100000          0.264184E-02
      0.105000          0.241154E-02
      0.110000          0.220952E-02
      0.115000          0.202883E-02
      0.120000          0.186394E-02
      0.125000          0.171085E-02
      0.130000          0.156701E-02
      0.135000          0.143112E-02
      0.140000          0.130284E-02
      0.145000          0.118247E-02
      0.150000          0.107066E-02
      0.155000          0.968133E-03
      0.160000          0.875435E-03
      0.165000          0.792820E-03
      0.170000          0.720171E-03
      0.175000          0.656993E-03
      0.180000          0.602470E-03
      0.185000          0.555554E-03
      0.190000          0.515077E-03
      0.195000          0.479859E-03
      0.200000          0.448808E-03
      0.205000          0.420995E-03
      0.210000          0.395696E-03
      0.215000          0.372409E-03
      0.220000          0.350835E-03
      0.225000          0.330848E-03
      0.230000          0.312442E-03
      0.235000          0.295681E-03
      0.240000          0.280643E-03
      0.245000          0.267381E-03
      0.250000          0.255891E-03
      0.255000          0.246095E-03
      0.260000          0.237844E-03
      0.265000          0.230920E-03
      0.270000          0.225064E-03
      0.275000          0.219993E-03
      0.280000          0.215428E-03
      0.285000          0.211116E-03
      0.290000          0.206847E-03
      0.295000          0.202466E-03
      0.300000          0.197879E-03
      0.305000          0.193050E-03
      0.310000          0.187998E-03
      0.315000          0.182781E-03
      0.320000          0.177489E-03
      0.325000          0.172228E-03
      0.330000          0.167111E-03
      0.335000          0.162243E-03
      0.340000          0.157715E-03
      0.345000          0.153600E-03
      0.350000          0.149944E-03
      0.355000          0.146769E-03
      0.360000          0.144072E-03
      0.365000          0.141827E-03
      0.370000          0.139986E-03
      0.375000          0.138486E-03
      0.380000          0.137251E-03
      0.385000          0.136199E-03
      0.390000          0.135245E-03
      0.395000          0.134308E-03
      0.400000          0.133316E-03
      0.405000          0.132210E-03
      0.410000          0.130944E-03
      0.415000          0.129495E-03
      0.420000          0.127856E-03
      0.425000          0.126041E-03
      0.430000          0.124079E-03
      0.435000          0.122014E-03
      0.440000          0.119900E-03
      0.445000          0.117795E-03
      0.450000          0.115754E-03
      0.455000          0.113828E-03
      0.460000          0.112060E-03
      0.465000          0.110477E-03
      0.470000          0.109091E-03
      0.475000          0.107903E-03
      0.480000          0.106896E-03
      0.485000          0.106042E-03
      0.490000          0.105305E-03
      0.495000          0.104644E-03
      0.500000          0.104016E-03
