 I_abs(s)[cm^-1]/c[mg/ml]
       0.00000          0.146302E-01
      0.500000E-02      0.145619E-01
      0.100000E-01      0.143588E-01
      0.150000E-01      0.140258E-01
      0.200000E-01      0.135713E-01
      0.250000E-01      0.130065E-01
      0.300000E-01      0.123451E-01
      0.350000E-01      0.116027E-01
      0.400000E-01      0.107964E-01
      0.450000E-01      0.994422E-02
      0.500000E-01      0.906427E-02
      0.550000E-01      0.817449E-02
      0.600000E-01      0.729190E-02
      0.650000E-01      0.643214E-02
      0.700000E-01      0.560911E-02
      0.750000E-01      0.483463E-02
      0.800000E-01      0.411818E-02
      0.850000E-01      0.346685E-02
      0.900000E-01      0.288523E-02
      0.950000E-01      0.237557E-02
      0.100000          0.193789E-02
      0.105000          0.157019E-02
      0.110000          0.126876E-02
      0.115000          0.102851E-02
      0.120000          0.843259E-03
      0.125000          0.706128E-03
      0.130000          0.609854E-03
      0.135000          0.547103E-03
      0.140000          0.510747E-03
      0.145000          0.494097E-03
      0.150000          0.491089E-03
      0.155000          0.496416E-03
      0.160000          0.505620E-03
      0.165000          0.515122E-03
      0.170000          0.522219E-03
      0.175000          0.525045E-03
      0.180000          0.522493E-03
      0.185000          0.514124E-03
      0.190000          0.500056E-03
      0.195000          0.480845E-03
      0.200000          0.457370E-03
      0.205000          0.430714E-03
      0.210000          0.402066E-03
      0.215000          0.372625E-03
      0.220000          0.343525E-03
      0.225000          0.315778E-03
      0.230000          0.290227E-03
      0.235000          0.267525E-03
      0.240000          0.248119E-03
      0.245000          0.232254E-03
      0.250000          0.219986E-03
      0.255000          0.211201E-03
      0.260000          0.205643E-03
      0.265000          0.202944E-03
      0.270000          0.202655E-03
      0.275000          0.204280E-03
      0.280000          0.207303E-03
      0.285000          0.211213E-03
      0.290000          0.215530E-03
      0.295000          0.219822E-03
      0.300000          0.223713E-03
      0.305000          0.226897E-03
      0.310000          0.229142E-03
      0.315000          0.230283E-03
      0.320000          0.230229E-03
      0.325000          0.228949E-03
      0.330000          0.226470E-03
      0.335000          0.222862E-03
      0.340000          0.218236E-03
      0.345000          0.212729E-03
      0.350000          0.206494E-03
      0.355000          0.199696E-03
      0.360000          0.192500E-03
      0.365000          0.185066E-03
      0.370000          0.177543E-03
      0.375000          0.170065E-03
      0.380000          0.162749E-03
      0.385000          0.155692E-03
      0.390000          0.148970E-03
      0.395000          0.142642E-03
      0.400000          0.136742E-03
      0.405000          0.131293E-03
      0.410000          0.126297E-03
      0.415000          0.121747E-03
      0.420000          0.117621E-03
      0.425000          0.113894E-03
      0.430000          0.110533E-03
      0.435000          0.107501E-03
      0.440000          0.104764E-03
      0.445000          0.102288E-03
      0.450000          0.100042E-03
      0.455000          0.979984E-04
      0.460000          0.961374E-04
      0.465000          0.944435E-04
      0.470000          0.929070E-04
      0.475000          0.915240E-04
      0.480000          0.902952E-04
      0.485000          0.892252E-04
      0.490000          0.883211E-04
      0.495000          0.875915E-04
      0.500000          0.870452E-04
