 I_abs(s)[cm^-1]/c[mg/ml]
       0.00000          0.145110E-01
      0.500000E-02      0.144372E-01
      0.100000E-01      0.142183E-01
      0.150000E-01      0.138609E-01
      0.200000E-01      0.133758E-01
      0.250000E-01      0.127773E-01
      0.300000E-01      0.120829E-01
      0.350000E-01      0.113121E-01
      0.400000E-01      0.104857E-01
      0.450000E-01      0.962510E-02
      0.500000E-01      0.875105E-02
      0.550000E-01      0.788322E-02
      0.600000E-01      0.703934E-02
      0.650000E-01      0.623466E-02
      0.700000E-01      0.548156E-02
      0.750000E-01      0.478931E-02
      0.800000E-01      0.416400E-02
      0.850000E-01      0.360868E-02
      0.900000E-01      0.312354E-02
      0.950000E-01      0.270633E-02
      0.100000          0.235274E-02
      0.105000          0.205692E-02
      0.110000          0.181200E-02
      0.115000          0.161057E-02
      0.120000          0.144513E-02
      0.125000          0.130852E-02
      0.130000          0.119418E-02
      0.135000          0.109642E-02
      0.140000          0.101054E-02
      0.145000          0.932889E-03
      0.150000          0.860832E-03
      0.155000          0.792677E-03
      0.160000          0.727531E-03
      0.165000          0.665143E-03
      0.170000          0.605725E-03
      0.175000          0.549777E-03
      0.180000          0.497930E-03
      0.185000          0.450803E-03
      0.190000          0.408905E-03
      0.195000          0.372555E-03
      0.200000          0.341850E-03
      0.205000          0.316652E-03
      0.210000          0.296607E-03
      0.215000          0.281181E-03
      0.220000          0.269710E-03
      0.225000          0.261457E-03
      0.230000          0.255664E-03
      0.235000          0.251607E-03
      0.240000          0.248633E-03
      0.245000          0.246191E-03
      0.250000          0.243853E-03
      0.255000          0.241314E-03
      0.260000          0.238388E-03
      0.265000          0.234998E-03
      0.270000          0.231152E-03
      0.275000          0.226919E-03
      0.280000          0.222411E-03
      0.285000          0.217753E-03
      0.290000          0.213070E-03
      0.295000          0.208467E-03
      0.300000          0.204025E-03
      0.305000          0.199793E-03
      0.310000          0.195789E-03
      0.315000          0.192003E-03
      0.320000          0.188406E-03
      0.325000          0.184957E-03
      0.330000          0.181612E-03
      0.335000          0.178330E-03
      0.340000          0.175085E-03
      0.345000          0.171865E-03
      0.350000          0.168680E-03
      0.355000          0.165555E-03
      0.360000          0.162536E-03
      0.365000          0.159680E-03
      0.370000          0.157052E-03
      0.375000          0.154715E-03
      0.380000          0.152729E-03
      0.385000          0.151141E-03
      0.390000          0.149981E-03
      0.395000          0.149255E-03
      0.400000          0.148949E-03
      0.405000          0.149022E-03
      0.410000          0.149408E-03
      0.415000          0.150025E-03
      0.420000          0.150771E-03
      0.425000          0.151536E-03
      0.430000          0.152203E-03
      0.435000          0.152661E-03
      0.440000          0.152805E-03
      0.445000          0.152546E-03
      0.450000          0.151812E-03
      0.455000          0.150558E-03
      0.460000          0.148761E-03
      0.465000          0.146424E-03
      0.470000          0.143578E-03
      0.475000          0.140273E-03
      0.480000          0.136580E-03
      0.485000          0.132582E-03
      0.490000          0.128374E-03
      0.495000          0.124054E-03
      0.500000          0.119716E-03
