 I_abs(s)[cm^-1]/c[mg/ml]
       0.00000          0.142110E-01
      0.500000E-02      0.141385E-01
      0.100000E-01      0.139233E-01
      0.150000E-01      0.135719E-01
      0.200000E-01      0.130950E-01
      0.250000E-01      0.125068E-01
      0.300000E-01      0.118244E-01
      0.350000E-01      0.110669E-01
      0.400000E-01      0.102548E-01
      0.450000E-01      0.940881E-02
      0.500000E-01      0.854935E-02
      0.550000E-01      0.769550E-02
      0.600000E-01      0.686447E-02
      0.650000E-01      0.607103E-02
      0.700000E-01      0.532716E-02
      0.750000E-01      0.464186E-02
      0.800000E-01      0.402111E-02
      0.850000E-01      0.346797E-02
      0.900000E-01      0.298290E-02
      0.950000E-01      0.256400E-02
      0.100000          0.220755E-02
      0.105000          0.190839E-02
      0.110000          0.166042E-02
      0.115000          0.145704E-02
      0.120000          0.129153E-02
      0.125000          0.115742E-02
      0.130000          0.104872E-02
      0.135000          0.960092E-03
      0.140000          0.886996E-03
      0.145000          0.825680E-03
      0.150000          0.773181E-03
      0.155000          0.727248E-03
      0.160000          0.686250E-03
      0.165000          0.649056E-03
      0.170000          0.614920E-03
      0.175000          0.583375E-03
      0.180000          0.554132E-03
      0.185000          0.527009E-03
      0.190000          0.501871E-03
      0.195000          0.478603E-03
      0.200000          0.457084E-03
      0.205000          0.437189E-03
      0.210000          0.418792E-03
      0.215000          0.401776E-03
      0.220000          0.386038E-03
      0.225000          0.371503E-03
      0.230000          0.358119E-03
      0.235000          0.345862E-03
      0.240000          0.334719E-03
      0.245000          0.324686E-03
      0.250000          0.315749E-03
      0.255000          0.307874E-03
      0.260000          0.300998E-03
      0.265000          0.295019E-03
      0.270000          0.289795E-03
      0.275000          0.285151E-03
      0.280000          0.280881E-03
      0.285000          0.276764E-03
      0.290000          0.272576E-03
      0.295000          0.268106E-03
      0.300000          0.263173E-03
      0.305000          0.257635E-03
      0.310000          0.251402E-03
      0.315000          0.244436E-03
      0.320000          0.236760E-03
      0.325000          0.228448E-03
      0.330000          0.219619E-03
      0.335000          0.210428E-03
      0.340000          0.201053E-03
      0.345000          0.191682E-03
      0.350000          0.182501E-03
      0.355000          0.173682E-03
      0.360000          0.165374E-03
      0.365000          0.157696E-03
      0.370000          0.150735E-03
      0.375000          0.144544E-03
      0.380000          0.139141E-03
      0.385000          0.134518E-03
      0.390000          0.130640E-03
      0.395000          0.127455E-03
      0.400000          0.124896E-03
      0.405000          0.122889E-03
      0.410000          0.121357E-03
      0.415000          0.120222E-03
      0.420000          0.119410E-03
      0.425000          0.118853E-03
      0.430000          0.118486E-03
      0.435000          0.118251E-03
      0.440000          0.118095E-03
      0.445000          0.117971E-03
      0.450000          0.117833E-03
      0.455000          0.117643E-03
      0.460000          0.117364E-03
      0.465000          0.116967E-03
      0.470000          0.116424E-03
      0.475000          0.115716E-03
      0.480000          0.114827E-03
      0.485000          0.113752E-03
      0.490000          0.112491E-03
      0.495000          0.111052E-03
      0.500000          0.109451E-03
