 I_abs(s)[cm^-1]/c[mg/ml]
       0.00000          0.145666E-01
      0.500000E-02      0.145030E-01
      0.100000E-01      0.143140E-01
      0.150000E-01      0.140049E-01
      0.200000E-01      0.135843E-01
      0.250000E-01      0.130636E-01
      0.300000E-01      0.124567E-01
      0.350000E-01      0.117790E-01
      0.400000E-01      0.110470E-01
      0.450000E-01      0.102777E-01
      0.500000E-01      0.948755E-02
      0.550000E-01      0.869237E-02
      0.600000E-01      0.790643E-02
      0.650000E-01      0.714225E-02
      0.700000E-01      0.641032E-02
      0.750000E-01      0.571893E-02
      0.800000E-01      0.507414E-02
      0.850000E-01      0.447992E-02
      0.900000E-01      0.393829E-02
      0.950000E-01      0.344954E-02
      0.100000          0.301255E-02
      0.105000          0.262510E-02
      0.110000          0.228413E-02
      0.115000          0.198605E-02
      0.120000          0.172698E-02
      0.125000          0.150294E-02
      0.130000          0.131005E-02
      0.135000          0.114462E-02
      0.140000          0.100321E-02
      0.145000          0.882722E-03
      0.150000          0.780366E-03
      0.155000          0.693674E-03
      0.160000          0.620479E-03
      0.165000          0.558883E-03
      0.170000          0.507231E-03
      0.175000          0.464083E-03
      0.180000          0.428184E-03
      0.185000          0.398447E-03
      0.190000          0.373929E-03
      0.195000          0.353820E-03
      0.200000          0.337425E-03
      0.205000          0.324152E-03
      0.210000          0.313498E-03
      0.215000          0.305038E-03
      0.220000          0.298409E-03
      0.225000          0.293299E-03
      0.230000          0.289436E-03
      0.235000          0.286577E-03
      0.240000          0.284499E-03
      0.245000          0.282997E-03
      0.250000          0.281878E-03
      0.255000          0.280962E-03
      0.260000          0.280081E-03
      0.265000          0.279087E-03
      0.270000          0.277850E-03
      0.275000          0.276266E-03
      0.280000          0.274255E-03
      0.285000          0.271769E-03
      0.290000          0.268788E-03
      0.295000          0.265321E-03
      0.300000          0.261401E-03
      0.305000          0.257082E-03
      0.310000          0.252435E-03
      0.315000          0.247539E-03
      0.320000          0.242480E-03
      0.325000          0.237340E-03
      0.330000          0.232194E-03
      0.335000          0.227109E-03
      0.340000          0.222137E-03
      0.345000          0.217317E-03
      0.350000          0.212672E-03
      0.355000          0.208212E-03
      0.360000          0.203936E-03
      0.365000          0.199831E-03
      0.370000          0.195879E-03
      0.375000          0.192058E-03
      0.380000          0.188344E-03
      0.385000          0.184714E-03
      0.390000          0.181147E-03
      0.395000          0.177627E-03
      0.400000          0.174140E-03
      0.405000          0.170677E-03
      0.410000          0.167235E-03
      0.415000          0.163811E-03
      0.420000          0.160403E-03
      0.425000          0.157013E-03
      0.430000          0.153640E-03
      0.435000          0.150283E-03
      0.440000          0.146941E-03
      0.445000          0.143610E-03
      0.450000          0.140286E-03
      0.455000          0.136964E-03
      0.460000          0.133642E-03
      0.465000          0.130316E-03
      0.470000          0.126987E-03
      0.475000          0.123657E-03
      0.480000          0.120332E-03
      0.485000          0.117021E-03
      0.490000          0.113737E-03
      0.495000          0.110494E-03
      0.500000          0.107307E-03
