 I_abs(s)[cm^-1]/c[mg/ml]
       0.00000          0.142503E-01
      0.500000E-02      0.141735E-01
      0.100000E-01      0.139456E-01
      0.150000E-01      0.135742E-01
      0.200000E-01      0.130713E-01
      0.250000E-01      0.124530E-01
      0.300000E-01      0.117383E-01
      0.350000E-01      0.109489E-01
      0.400000E-01      0.101073E-01
      0.450000E-01      0.923651E-02
      0.500000E-01      0.835850E-02
      0.550000E-01      0.749374E-02
      0.600000E-01      0.666023E-02
      0.650000E-01      0.587300E-02
      0.700000E-01      0.514376E-02
      0.750000E-01      0.448070E-02
      0.800000E-01      0.388859E-02
      0.850000E-01      0.336892E-02
      0.900000E-01      0.292035E-02
      0.950000E-01      0.253913E-02
      0.100000          0.221966E-02
      0.105000          0.195509E-02
      0.110000          0.173784E-02
      0.115000          0.156015E-02
      0.120000          0.141452E-02
      0.125000          0.129404E-02
      0.130000          0.119268E-02
      0.135000          0.110539E-02
      0.140000          0.102821E-02
      0.145000          0.958214E-03
      0.150000          0.893408E-03
      0.155000          0.832600E-03
      0.160000          0.775229E-03
      0.165000          0.721181E-03
      0.170000          0.670621E-03
      0.175000          0.623840E-03
      0.180000          0.581130E-03
      0.185000          0.542694E-03
      0.190000          0.508588E-03
      0.195000          0.478699E-03
      0.200000          0.452746E-03
      0.205000          0.430306E-03
      0.210000          0.410848E-03
      0.215000          0.393786E-03
      0.220000          0.378518E-03
      0.225000          0.364475E-03
      0.230000          0.351155E-03
      0.235000          0.338149E-03
      0.240000          0.325155E-03
      0.245000          0.311983E-03
      0.250000          0.298555E-03
      0.255000          0.284887E-03
      0.260000          0.271078E-03
      0.265000          0.257286E-03
      0.270000          0.243711E-03
      0.275000          0.230574E-03
      0.280000          0.218098E-03
      0.285000          0.206493E-03
      0.290000          0.195943E-03
      0.295000          0.186600E-03
      0.300000          0.178572E-03
      0.305000          0.171927E-03
      0.310000          0.166685E-03
      0.315000          0.162827E-03
      0.320000          0.160290E-03
      0.325000          0.158978E-03
      0.330000          0.158763E-03
      0.335000          0.159494E-03
      0.340000          0.161002E-03
      0.345000          0.163108E-03
      0.350000          0.165627E-03
      0.355000          0.168379E-03
      0.360000          0.171191E-03
      0.365000          0.173902E-03
      0.370000          0.176373E-03
      0.375000          0.178481E-03
      0.380000          0.180128E-03
      0.385000          0.181240E-03
      0.390000          0.181764E-03
      0.395000          0.181670E-03
      0.400000          0.180950E-03
      0.405000          0.179611E-03
      0.410000          0.177678E-03
      0.415000          0.175187E-03
      0.420000          0.172188E-03
      0.425000          0.168735E-03
      0.430000          0.164892E-03
      0.435000          0.160724E-03
      0.440000          0.156302E-03
      0.445000          0.151699E-03
      0.450000          0.146985E-03
      0.455000          0.142232E-03
      0.460000          0.137510E-03
      0.465000          0.132882E-03
      0.470000          0.128410E-03
      0.475000          0.124144E-03
      0.480000          0.120131E-03
      0.485000          0.116404E-03
      0.490000          0.112986E-03
      0.495000          0.109891E-03
      0.500000          0.107118E-03
