 I_abs(s)[cm^-1]/c[mg/ml]
       0.00000          0.140544E-01
      0.500000E-02      0.139971E-01
      0.100000E-01      0.138265E-01
      0.150000E-01      0.135467E-01
      0.200000E-01      0.131643E-01
      0.250000E-01      0.126882E-01
      0.300000E-01      0.121295E-01
      0.350000E-01      0.115005E-01
      0.400000E-01      0.108151E-01
      0.450000E-01      0.100876E-01
      0.500000E-01      0.933260E-02
      0.550000E-01      0.856461E-02
      0.600000E-01      0.779738E-02
      0.650000E-01      0.704366E-02
      0.700000E-01      0.631485E-02
      0.750000E-01      0.562075E-02
      0.800000E-01      0.496938E-02
      0.850000E-01      0.436691E-02
      0.900000E-01      0.381760E-02
      0.950000E-01      0.332389E-02
      0.100000          0.288649E-02
      0.105000          0.250458E-02
      0.110000          0.217598E-02
      0.115000          0.189743E-02
      0.120000          0.166481E-02
      0.125000          0.147343E-02
      0.130000          0.131822E-02
      0.135000          0.119402E-02
      0.140000          0.109573E-02
      0.145000          0.101849E-02
      0.150000          0.957815E-03
      0.155000          0.909701E-03
      0.160000          0.870660E-03
      0.165000          0.837761E-03
      0.170000          0.808629E-03
      0.175000          0.781415E-03
      0.180000          0.754760E-03
      0.185000          0.727733E-03
      0.190000          0.699773E-03
      0.195000          0.670619E-03
      0.200000          0.640249E-03
      0.205000          0.608816E-03
      0.210000          0.576596E-03
      0.215000          0.543938E-03
      0.220000          0.511229E-03
      0.225000          0.478863E-03
      0.230000          0.447215E-03
      0.235000          0.416628E-03
      0.240000          0.387402E-03
      0.245000          0.359785E-03
      0.250000          0.333974E-03
      0.255000          0.310113E-03
      0.260000          0.288293E-03
      0.265000          0.268558E-03
      0.270000          0.250903E-03
      0.275000          0.235283E-03
      0.280000          0.221612E-03
      0.285000          0.209774E-03
      0.290000          0.199622E-03
      0.295000          0.190987E-03
      0.300000          0.183685E-03
      0.305000          0.177523E-03
      0.310000          0.172304E-03
      0.315000          0.167834E-03
      0.320000          0.163933E-03
      0.325000          0.160434E-03
      0.330000          0.157194E-03
      0.335000          0.154092E-03
      0.340000          0.151035E-03
      0.345000          0.147959E-03
      0.350000          0.144824E-03
      0.355000          0.141616E-03
      0.360000          0.138341E-03
      0.365000          0.135025E-03
      0.370000          0.131703E-03
      0.375000          0.128418E-03
      0.380000          0.125217E-03
      0.385000          0.122144E-03
      0.390000          0.119237E-03
      0.395000          0.116527E-03
      0.400000          0.114035E-03
      0.405000          0.111773E-03
      0.410000          0.109740E-03
      0.415000          0.107929E-03
      0.420000          0.106323E-03
      0.425000          0.104904E-03
      0.430000          0.103648E-03
      0.435000          0.102532E-03
      0.440000          0.101532E-03
      0.445000          0.100629E-03
      0.450000          0.998086E-04
      0.455000          0.990577E-04
      0.460000          0.983685E-04
      0.465000          0.977364E-04
      0.470000          0.971585E-04
      0.475000          0.966333E-04
      0.480000          0.961583E-04
      0.485000          0.957299E-04
      0.490000          0.953413E-04
      0.495000          0.949828E-04
      0.500000          0.946410E-04
