 I_abs(s)[cm^-1]/c[mg/ml]
       0.00000          0.143155E-01
      0.500000E-02      0.142573E-01
      0.100000E-01      0.140840E-01
      0.150000E-01      0.138000E-01
      0.200000E-01      0.134127E-01
      0.250000E-01      0.129315E-01
      0.300000E-01      0.123682E-01
      0.350000E-01      0.117362E-01
      0.400000E-01      0.110497E-01
      0.450000E-01      0.103238E-01
      0.500000E-01      0.957351E-02
      0.550000E-01      0.881330E-02
      0.600000E-01      0.805678E-02
      0.650000E-01      0.731623E-02
      0.700000E-01      0.660232E-02
      0.750000E-01      0.592388E-02
      0.800000E-01      0.528780E-02
      0.850000E-01      0.469901E-02
      0.900000E-01      0.416054E-02
      0.950000E-01      0.367365E-02
      0.100000          0.323803E-02
      0.105000          0.285207E-02
      0.110000          0.251306E-02
      0.115000          0.221754E-02
      0.120000          0.196153E-02
      0.125000          0.174078E-02
      0.130000          0.155098E-02
      0.135000          0.138799E-02
      0.140000          0.124792E-02
      0.145000          0.112726E-02
      0.150000          0.102294E-02
      0.155000          0.932319E-03
      0.160000          0.853223E-03
      0.165000          0.783867E-03
      0.170000          0.722825E-03
      0.175000          0.668971E-03
      0.180000          0.621409E-03
      0.185000          0.579420E-03
      0.190000          0.542406E-03
      0.195000          0.509847E-03
      0.200000          0.481269E-03
      0.205000          0.456221E-03
      0.210000          0.434265E-03
      0.215000          0.414971E-03
      0.220000          0.397921E-03
      0.225000          0.382716E-03
      0.230000          0.368985E-03
      0.235000          0.356391E-03
      0.240000          0.344645E-03
      0.245000          0.333504E-03
      0.250000          0.322774E-03
      0.255000          0.312315E-03
      0.260000          0.302027E-03
      0.265000          0.291852E-03
      0.270000          0.281762E-03
      0.275000          0.271753E-03
      0.280000          0.261837E-03
      0.285000          0.252036E-03
      0.290000          0.242376E-03
      0.295000          0.232882E-03
      0.300000          0.223579E-03
      0.305000          0.214491E-03
      0.310000          0.205637E-03
      0.315000          0.197039E-03
      0.320000          0.188719E-03
      0.325000          0.180702E-03
      0.330000          0.173016E-03
      0.335000          0.165695E-03
      0.340000          0.158775E-03
      0.345000          0.152293E-03
      0.350000          0.146287E-03
      0.355000          0.140792E-03
      0.360000          0.135838E-03
      0.365000          0.131446E-03
      0.370000          0.127626E-03
      0.375000          0.124376E-03
      0.380000          0.121678E-03
      0.385000          0.119503E-03
      0.390000          0.117808E-03
      0.395000          0.116535E-03
      0.400000          0.115621E-03
      0.405000          0.114994E-03
      0.410000          0.114578E-03
      0.415000          0.114297E-03
      0.420000          0.114079E-03
      0.425000          0.113857E-03
      0.430000          0.113571E-03
      0.435000          0.113173E-03
      0.440000          0.112624E-03
      0.445000          0.111898E-03
      0.450000          0.110979E-03
      0.455000          0.109861E-03
      0.460000          0.108551E-03
      0.465000          0.107060E-03
      0.470000          0.105409E-03
      0.475000          0.103622E-03
      0.480000          0.101726E-03
      0.485000          0.997509E-04
      0.490000          0.977275E-04
      0.495000          0.956852E-04
      0.500000          0.936525E-04
