 I_abs(s)[cm^-1]/c[mg/ml]
       0.00000          0.146320E-01
      0.500000E-02      0.145614E-01
      0.100000E-01      0.143518E-01
      0.150000E-01      0.140090E-01
      0.200000E-01      0.135427E-01
      0.250000E-01      0.129659E-01
      0.300000E-01      0.122943E-01
      0.350000E-01      0.115454E-01
      0.400000E-01      0.107385E-01
      0.450000E-01      0.989303E-02
      0.500000E-01      0.902848E-02
      0.550000E-01      0.816339E-02
      0.600000E-01      0.731482E-02
      0.650000E-01      0.649781E-02
      0.700000E-01      0.572497E-02
      0.750000E-01      0.500628E-02
      0.800000E-01      0.434892E-02
      0.850000E-01      0.375736E-02
      0.900000E-01      0.323341E-02
      0.950000E-01      0.277657E-02
      0.100000          0.238429E-02
      0.105000          0.205238E-02
      0.110000          0.177543E-02
      0.115000          0.154722E-02
      0.120000          0.136110E-02
      0.125000          0.121040E-02
      0.130000          0.108868E-02
      0.135000          0.990038E-03
      0.140000          0.909219E-03
      0.145000          0.841772E-03
      0.150000          0.784079E-03
      0.155000          0.733342E-03
      0.160000          0.687531E-03
      0.165000          0.645287E-03
      0.170000          0.605811E-03
      0.175000          0.568735E-03
      0.180000          0.533997E-03
      0.185000          0.501721E-03
      0.190000          0.472115E-03
      0.195000          0.445382E-03
      0.200000          0.421664E-03
      0.205000          0.400994E-03
      0.210000          0.383284E-03
      0.215000          0.368318E-03
      0.220000          0.355769E-03
      0.225000          0.345223E-03
      0.230000          0.336209E-03
      0.235000          0.328239E-03
      0.240000          0.320833E-03
      0.245000          0.313558E-03
      0.250000          0.306048E-03
      0.255000          0.298022E-03
      0.260000          0.289296E-03
      0.265000          0.279786E-03
      0.270000          0.269500E-03
      0.275000          0.258532E-03
      0.280000          0.247048E-03
      0.285000          0.235261E-03
      0.290000          0.223421E-03
      0.295000          0.211788E-03
      0.300000          0.200615E-03
      0.305000          0.190135E-03
      0.310000          0.180543E-03
      0.315000          0.171988E-03
      0.320000          0.164570E-03
      0.325000          0.158332E-03
      0.330000          0.153265E-03
      0.335000          0.149313E-03
      0.340000          0.146380E-03
      0.345000          0.144336E-03
      0.350000          0.143033E-03
      0.355000          0.142308E-03
      0.360000          0.142000E-03
      0.365000          0.141955E-03
      0.370000          0.142035E-03
      0.375000          0.142120E-03
      0.380000          0.142118E-03
      0.385000          0.141961E-03
      0.390000          0.141607E-03
      0.395000          0.141036E-03
      0.400000          0.140250E-03
      0.405000          0.139266E-03
      0.410000          0.138112E-03
      0.415000          0.136821E-03
      0.420000          0.135430E-03
      0.425000          0.133973E-03
      0.430000          0.132479E-03
      0.435000          0.130973E-03
      0.440000          0.129469E-03
      0.445000          0.127976E-03
      0.450000          0.126495E-03
      0.455000          0.125022E-03
      0.460000          0.123550E-03
      0.465000          0.122068E-03
      0.470000          0.120568E-03
      0.475000          0.119041E-03
      0.480000          0.117481E-03
      0.485000          0.115887E-03
      0.490000          0.114262E-03
      0.495000          0.112609E-03
      0.500000          0.110941E-03
