 I_abs(s)[cm^-1]/c[mg/ml]
       0.00000          0.134977E-01
      0.500000E-02      0.134378E-01
      0.100000E-01      0.132594E-01
      0.150000E-01      0.129673E-01
      0.200000E-01      0.125689E-01
      0.250000E-01      0.120744E-01
      0.300000E-01      0.114960E-01
      0.350000E-01      0.108479E-01
      0.400000E-01      0.101454E-01
      0.450000E-01      0.940435E-02
      0.500000E-01      0.864102E-02
      0.550000E-01      0.787111E-02
      0.600000E-01      0.710947E-02
      0.650000E-01      0.636960E-02
      0.700000E-01      0.566331E-02
      0.750000E-01      0.500044E-02
      0.800000E-01      0.438867E-02
      0.850000E-01      0.383349E-02
      0.900000E-01      0.333813E-02
      0.950000E-01      0.290374E-02
      0.100000          0.252951E-02
      0.105000          0.221297E-02
      0.110000          0.195020E-02
      0.115000          0.173621E-02
      0.120000          0.156525E-02
      0.125000          0.143111E-02
      0.130000          0.132746E-02
      0.135000          0.124810E-02
      0.140000          0.118720E-02
      0.145000          0.113948E-02
      0.150000          0.110037E-02
      0.155000          0.106604E-02
      0.160000          0.103351E-02
      0.165000          0.100056E-02
      0.170000          0.965743E-03
      0.175000          0.928266E-03
      0.180000          0.887913E-03
      0.185000          0.844923E-03
      0.190000          0.799870E-03
      0.195000          0.753547E-03
      0.200000          0.706856E-03
      0.205000          0.660718E-03
      0.210000          0.615989E-03
      0.215000          0.573405E-03
      0.220000          0.533543E-03
      0.225000          0.496798E-03
      0.230000          0.463379E-03
      0.235000          0.433322E-03
      0.240000          0.406511E-03
      0.245000          0.382707E-03
      0.250000          0.361585E-03
      0.255000          0.342766E-03
      0.260000          0.325852E-03
      0.265000          0.310460E-03
      0.270000          0.296241E-03
      0.275000          0.282905E-03
      0.280000          0.270225E-03
      0.285000          0.258047E-03
      0.290000          0.246288E-03
      0.295000          0.234925E-03
      0.300000          0.223987E-03
      0.305000          0.213542E-03
      0.310000          0.203679E-03
      0.315000          0.194497E-03
      0.320000          0.186088E-03
      0.325000          0.178527E-03
      0.330000          0.171862E-03
      0.335000          0.166112E-03
      0.340000          0.161259E-03
      0.345000          0.157257E-03
      0.350000          0.154028E-03
      0.355000          0.151470E-03
      0.360000          0.149469E-03
      0.365000          0.147900E-03
      0.370000          0.146642E-03
      0.375000          0.145580E-03
      0.380000          0.144615E-03
      0.385000          0.143668E-03
      0.390000          0.142684E-03
      0.395000          0.141633E-03
      0.400000          0.140505E-03
      0.405000          0.139316E-03
      0.410000          0.138095E-03
      0.415000          0.136888E-03
      0.420000          0.135743E-03
      0.425000          0.134712E-03
      0.430000          0.133842E-03
      0.435000          0.133169E-03
      0.440000          0.132716E-03
      0.445000          0.132491E-03
      0.450000          0.132484E-03
      0.455000          0.132666E-03
      0.460000          0.132994E-03
      0.465000          0.133410E-03
      0.470000          0.133847E-03
      0.475000          0.134230E-03
      0.480000          0.134485E-03
      0.485000          0.134539E-03
      0.490000          0.134330E-03
      0.495000          0.133804E-03
      0.500000          0.132924E-03
