 I_abs(s)[cm^-1]/c[mg/ml]
       0.00000          0.138056E-01
      0.500000E-02      0.137538E-01
      0.100000E-01      0.135995E-01
      0.150000E-01      0.133464E-01
      0.200000E-01      0.130001E-01
      0.250000E-01      0.125683E-01
      0.300000E-01      0.120605E-01
      0.350000E-01      0.114875E-01
      0.400000E-01      0.108611E-01
      0.450000E-01      0.101937E-01
      0.500000E-01      0.949795E-02
      0.550000E-01      0.878634E-02
      0.600000E-01      0.807078E-02
      0.650000E-01      0.736234E-02
      0.700000E-01      0.667102E-02
      0.750000E-01      0.600551E-02
      0.800000E-01      0.537310E-02
      0.850000E-01      0.477955E-02
      0.900000E-01      0.422917E-02
      0.950000E-01      0.372480E-02
      0.100000          0.326793E-02
      0.105000          0.285882E-02
      0.110000          0.249667E-02
      0.115000          0.217980E-02
      0.120000          0.190577E-02
      0.125000          0.167163E-02
      0.130000          0.147403E-02
      0.135000          0.130940E-02
      0.140000          0.117404E-02
      0.145000          0.106429E-02
      0.150000          0.976545E-03
      0.155000          0.907384E-03
      0.160000          0.853587E-03
      0.165000          0.812180E-03
      0.170000          0.780459E-03
      0.175000          0.756001E-03
      0.180000          0.736668E-03
      0.185000          0.720613E-03
      0.190000          0.706267E-03
      0.195000          0.692343E-03
      0.200000          0.677816E-03
      0.205000          0.661918E-03
      0.210000          0.644119E-03
      0.215000          0.624114E-03
      0.220000          0.601795E-03
      0.225000          0.577233E-03
      0.230000          0.550649E-03
      0.235000          0.522383E-03
      0.240000          0.492868E-03
      0.245000          0.462592E-03
      0.250000          0.432075E-03
      0.255000          0.401834E-03
      0.260000          0.372361E-03
      0.265000          0.344100E-03
      0.270000          0.317429E-03
      0.275000          0.292650E-03
      0.280000          0.269981E-03
      0.285000          0.249555E-03
      0.290000          0.231424E-03
      0.295000          0.215564E-03
      0.300000          0.201887E-03
      0.305000          0.190254E-03
      0.310000          0.180485E-03
      0.315000          0.172375E-03
      0.320000          0.165705E-03
      0.325000          0.160254E-03
      0.330000          0.155805E-03
      0.335000          0.152158E-03
      0.340000          0.149129E-03
      0.345000          0.146554E-03
      0.350000          0.144294E-03
      0.355000          0.142230E-03
      0.360000          0.140264E-03
      0.365000          0.138319E-03
      0.370000          0.136333E-03
      0.375000          0.134262E-03
      0.380000          0.132075E-03
      0.385000          0.129752E-03
      0.390000          0.127289E-03
      0.395000          0.124688E-03
      0.400000          0.121967E-03
      0.405000          0.119151E-03
      0.410000          0.116274E-03
      0.415000          0.113380E-03
      0.420000          0.110520E-03
      0.425000          0.107749E-03
      0.430000          0.105129E-03
      0.435000          0.102717E-03
      0.440000          0.100573E-03
      0.445000          0.987504E-04
      0.450000          0.972949E-04
      0.455000          0.962430E-04
      0.460000          0.956197E-04
      0.465000          0.954364E-04
      0.470000          0.956906E-04
      0.475000          0.963658E-04
      0.480000          0.974314E-04
      0.485000          0.988444E-04
      0.490000          0.100551E-03
      0.495000          0.102488E-03
      0.500000          0.104585E-03
