 I_abs(s)[cm^-1]/c[mg/ml]
       0.00000          0.136205E-01
      0.500000E-02      0.135663E-01
      0.100000E-01      0.134051E-01
      0.150000E-01      0.131405E-01
      0.200000E-01      0.127785E-01
      0.250000E-01      0.123272E-01
      0.300000E-01      0.117965E-01
      0.350000E-01      0.111979E-01
      0.400000E-01      0.105440E-01
      0.450000E-01      0.984817E-02
      0.500000E-01      0.912402E-02
      0.550000E-01      0.838519E-02
      0.600000E-01      0.764481E-02
      0.650000E-01      0.691520E-02
      0.700000E-01      0.620755E-02
      0.750000E-01      0.553167E-02
      0.800000E-01      0.489575E-02
      0.850000E-01      0.430632E-02
      0.900000E-01      0.376810E-02
      0.950000E-01      0.328407E-02
      0.100000          0.285552E-02
      0.105000          0.248214E-02
      0.110000          0.216224E-02
      0.115000          0.189293E-02
      0.120000          0.167034E-02
      0.125000          0.148985E-02
      0.130000          0.134640E-02
      0.135000          0.123462E-02
      0.140000          0.114915E-02
      0.145000          0.108477E-02
      0.150000          0.103658E-02
      0.155000          0.100015E-02
      0.160000          0.971577E-03
      0.165000          0.947572E-03
      0.170000          0.925478E-03
      0.175000          0.903261E-03
      0.180000          0.879480E-03
      0.185000          0.853233E-03
      0.190000          0.824087E-03
      0.195000          0.791999E-03
      0.200000          0.757233E-03
      0.205000          0.720273E-03
      0.210000          0.681746E-03
      0.215000          0.642346E-03
      0.220000          0.602777E-03
      0.225000          0.563704E-03
      0.230000          0.525709E-03
      0.235000          0.489277E-03
      0.240000          0.454774E-03
      0.245000          0.422452E-03
      0.250000          0.392452E-03
      0.255000          0.364816E-03
      0.260000          0.339508E-03
      0.265000          0.316428E-03
      0.270000          0.295436E-03
      0.275000          0.276369E-03
      0.280000          0.259057E-03
      0.285000          0.243335E-03
      0.290000          0.229056E-03
      0.295000          0.216094E-03
      0.300000          0.204346E-03
      0.305000          0.193732E-03
      0.310000          0.184192E-03
      0.315000          0.175679E-03
      0.320000          0.168157E-03
      0.325000          0.161590E-03
      0.330000          0.155940E-03
      0.335000          0.151163E-03
      0.340000          0.147203E-03
      0.345000          0.143990E-03
      0.350000          0.141444E-03
      0.355000          0.139474E-03
      0.360000          0.137980E-03
      0.365000          0.136858E-03
      0.370000          0.136004E-03
      0.375000          0.135318E-03
      0.380000          0.134708E-03
      0.385000          0.134097E-03
      0.390000          0.133420E-03
      0.395000          0.132632E-03
      0.400000          0.131703E-03
      0.405000          0.130623E-03
      0.410000          0.129396E-03
      0.415000          0.128043E-03
      0.420000          0.126592E-03
      0.425000          0.125080E-03
      0.430000          0.123550E-03
      0.435000          0.122043E-03
      0.440000          0.120597E-03
      0.445000          0.119245E-03
      0.450000          0.118013E-03
      0.455000          0.116917E-03
      0.460000          0.115963E-03
      0.465000          0.115147E-03
      0.470000          0.114459E-03
      0.475000          0.113879E-03
      0.480000          0.113382E-03
      0.485000          0.112942E-03
      0.490000          0.112527E-03
      0.495000          0.112113E-03
      0.500000          0.111673E-03
