 I_abs(s)[cm^-1]/c[mg/ml]
       0.00000          0.135744E-01
      0.500000E-02      0.135201E-01
      0.100000E-01      0.133584E-01
      0.150000E-01      0.130930E-01
      0.200000E-01      0.127298E-01
      0.250000E-01      0.122768E-01
      0.300000E-01      0.117440E-01
      0.350000E-01      0.111427E-01
      0.400000E-01      0.104856E-01
      0.450000E-01      0.978592E-02
      0.500000E-01      0.905747E-02
      0.550000E-01      0.831395E-02
      0.600000E-01      0.756864E-02
      0.650000E-01      0.683407E-02
      0.700000E-01      0.612164E-02
      0.750000E-01      0.544145E-02
      0.800000E-01      0.480197E-02
      0.850000E-01      0.421002E-02
      0.900000E-01      0.367060E-02
      0.950000E-01      0.318692E-02
      0.100000          0.276046E-02
      0.105000          0.239103E-02
      0.110000          0.207698E-02
      0.115000          0.181538E-02
      0.120000          0.160220E-02
      0.125000          0.143262E-02
      0.130000          0.130124E-02
      0.135000          0.120234E-02
      0.140000          0.113010E-02
      0.145000          0.107883E-02
      0.150000          0.104316E-02
      0.155000          0.101818E-02
      0.160000          0.999560E-03
      0.165000          0.983641E-03
      0.170000          0.967470E-03
      0.175000          0.948814E-03
      0.180000          0.926137E-03
      0.185000          0.898552E-03
      0.190000          0.865752E-03
      0.195000          0.827920E-03
      0.200000          0.785639E-03
      0.205000          0.739786E-03
      0.210000          0.691434E-03
      0.215000          0.641757E-03
      0.220000          0.591946E-03
      0.225000          0.543134E-03
      0.230000          0.496340E-03
      0.235000          0.452418E-03
      0.240000          0.412038E-03
      0.245000          0.375662E-03
      0.250000          0.343551E-03
      0.255000          0.315772E-03
      0.260000          0.292217E-03
      0.265000          0.272635E-03
      0.270000          0.256656E-03
      0.275000          0.243830E-03
      0.280000          0.233658E-03
      0.285000          0.225624E-03
      0.290000          0.219221E-03
      0.295000          0.213979E-03
      0.300000          0.209478E-03
      0.305000          0.205362E-03
      0.310000          0.201351E-03
      0.315000          0.197234E-03
      0.320000          0.192876E-03
      0.325000          0.188205E-03
      0.330000          0.183209E-03
      0.335000          0.177920E-03
      0.340000          0.172406E-03
      0.345000          0.166759E-03
      0.350000          0.161081E-03
      0.355000          0.155477E-03
      0.360000          0.150048E-03
      0.365000          0.144881E-03
      0.370000          0.140044E-03
      0.375000          0.135589E-03
      0.380000          0.131545E-03
      0.385000          0.127923E-03
      0.390000          0.124718E-03
      0.395000          0.121907E-03
      0.400000          0.119459E-03
      0.405000          0.117335E-03
      0.410000          0.115494E-03
      0.415000          0.113892E-03
      0.420000          0.112492E-03
      0.425000          0.111258E-03
      0.430000          0.110164E-03
      0.435000          0.109188E-03
      0.440000          0.108317E-03
      0.445000          0.107544E-03
      0.450000          0.106868E-03
      0.455000          0.106293E-03
      0.460000          0.105823E-03
      0.465000          0.105464E-03
      0.470000          0.105222E-03
      0.475000          0.105100E-03
      0.480000          0.105096E-03
      0.485000          0.105206E-03
      0.490000          0.105419E-03
      0.495000          0.105722E-03
      0.500000          0.106096E-03
