 I_abs(s)[cm^-1]/c[mg/ml]
       0.00000          0.135514E-01
      0.500000E-02      0.134924E-01
      0.100000E-01      0.133170E-01
      0.150000E-01      0.130299E-01
      0.200000E-01      0.126383E-01
      0.250000E-01      0.121523E-01
      0.300000E-01      0.115839E-01
      0.350000E-01      0.109469E-01
      0.400000E-01      0.102563E-01
      0.450000E-01      0.952757E-02
      0.500000E-01      0.877634E-02
      0.550000E-01      0.801777E-02
      0.600000E-01      0.726607E-02
      0.650000E-01      0.653412E-02
      0.700000E-01      0.583315E-02
      0.750000E-01      0.517251E-02
      0.800000E-01      0.455950E-02
      0.850000E-01      0.399937E-02
      0.900000E-01      0.349532E-02
      0.950000E-01      0.304867E-02
      0.100000          0.265898E-02
      0.105000          0.232431E-02
      0.110000          0.204149E-02
      0.115000          0.180638E-02
      0.120000          0.161416E-02
      0.125000          0.145957E-02
      0.130000          0.133720E-02
      0.135000          0.124168E-02
      0.140000          0.116784E-02
      0.145000          0.111090E-02
      0.150000          0.106655E-02
      0.155000          0.103101E-02
      0.160000          0.100110E-02
      0.165000          0.974199E-03
      0.170000          0.948268E-03
      0.175000          0.921792E-03
      0.180000          0.893735E-03
      0.185000          0.863480E-03
      0.190000          0.830762E-03
      0.195000          0.795599E-03
      0.200000          0.758232E-03
      0.205000          0.719058E-03
      0.210000          0.678579E-03
      0.215000          0.637350E-03
      0.220000          0.595941E-03
      0.225000          0.554903E-03
      0.230000          0.514745E-03
      0.235000          0.475917E-03
      0.240000          0.438796E-03
      0.245000          0.403687E-03
      0.250000          0.370823E-03
      0.255000          0.340366E-03
      0.260000          0.312417E-03
      0.265000          0.287026E-03
      0.270000          0.264195E-03
      0.275000          0.243895E-03
      0.280000          0.226066E-03
      0.285000          0.210627E-03
      0.290000          0.197479E-03
      0.295000          0.186508E-03
      0.300000          0.177586E-03
      0.305000          0.170568E-03
      0.310000          0.165296E-03
      0.315000          0.161598E-03
      0.320000          0.159283E-03
      0.325000          0.158147E-03
      0.330000          0.157974E-03
      0.335000          0.158539E-03
      0.340000          0.159614E-03
      0.345000          0.160973E-03
      0.350000          0.162401E-03
      0.355000          0.163698E-03
      0.360000          0.164691E-03
      0.365000          0.165237E-03
      0.370000          0.165229E-03
      0.375000          0.164600E-03
      0.380000          0.163323E-03
      0.385000          0.161412E-03
      0.390000          0.158915E-03
      0.395000          0.155917E-03
      0.400000          0.152524E-03
      0.405000          0.148862E-03
      0.410000          0.145067E-03
      0.415000          0.141275E-03
      0.420000          0.137616E-03
      0.425000          0.134207E-03
      0.430000          0.131145E-03
      0.435000          0.128503E-03
      0.440000          0.126328E-03
      0.445000          0.124643E-03
      0.450000          0.123441E-03
      0.455000          0.122697E-03
      0.460000          0.122361E-03
      0.465000          0.122371E-03
      0.470000          0.122654E-03
      0.475000          0.123129E-03
      0.480000          0.123717E-03
      0.485000          0.124341E-03
      0.490000          0.124929E-03
      0.495000          0.125420E-03
      0.500000          0.125764E-03
