 I_abs(s)[cm^-1]/c[mg/ml]
       0.00000          0.136512E-01
      0.500000E-02      0.135988E-01
      0.100000E-01      0.134426E-01
      0.150000E-01      0.131862E-01
      0.200000E-01      0.128350E-01
      0.250000E-01      0.123967E-01
      0.300000E-01      0.118805E-01
      0.350000E-01      0.112971E-01
      0.400000E-01      0.106584E-01
      0.450000E-01      0.997682E-02
      0.500000E-01      0.926543E-02
      0.550000E-01      0.853711E-02
      0.600000E-01      0.780441E-02
      0.650000E-01      0.707922E-02
      0.700000E-01      0.637241E-02
      0.750000E-01      0.569365E-02
      0.800000E-01      0.505119E-02
      0.850000E-01      0.445173E-02
      0.900000E-01      0.390036E-02
      0.950000E-01      0.340054E-02
      0.100000          0.295415E-02
      0.105000          0.256157E-02
      0.110000          0.222184E-02
      0.115000          0.193281E-02
      0.120000          0.169130E-02
      0.125000          0.149340E-02
      0.130000          0.133459E-02
      0.135000          0.121000E-02
      0.140000          0.111460E-02
      0.145000          0.104336E-02
      0.150000          0.991463E-03
      0.155000          0.954381E-03
      0.160000          0.928012E-03
      0.165000          0.908743E-03
      0.170000          0.893497E-03
      0.175000          0.879756E-03
      0.180000          0.865551E-03
      0.185000          0.849439E-03
      0.190000          0.830459E-03
      0.195000          0.808080E-03
      0.200000          0.782133E-03
      0.205000          0.752747E-03
      0.210000          0.720283E-03
      0.215000          0.685264E-03
      0.220000          0.648315E-03
      0.225000          0.610115E-03
      0.230000          0.571344E-03
      0.235000          0.532652E-03
      0.240000          0.494630E-03
      0.245000          0.457789E-03
      0.250000          0.422551E-03
      0.255000          0.389245E-03
      0.260000          0.358107E-03
      0.265000          0.329288E-03
      0.270000          0.302863E-03
      0.275000          0.278838E-03
      0.280000          0.257170E-03
      0.285000          0.237774E-03
      0.290000          0.220535E-03
      0.295000          0.205320E-03
      0.300000          0.191986E-03
      0.305000          0.180386E-03
      0.310000          0.170378E-03
      0.315000          0.161822E-03
      0.320000          0.154589E-03
      0.325000          0.148556E-03
      0.330000          0.143608E-03
      0.335000          0.139639E-03
      0.340000          0.136547E-03
      0.345000          0.134234E-03
      0.350000          0.132605E-03
      0.355000          0.131568E-03
      0.360000          0.131030E-03
      0.365000          0.130901E-03
      0.370000          0.131090E-03
      0.375000          0.131511E-03
      0.380000          0.132077E-03
      0.385000          0.132710E-03
      0.390000          0.133334E-03
      0.395000          0.133883E-03
      0.400000          0.134299E-03
      0.405000          0.134534E-03
      0.410000          0.134552E-03
      0.415000          0.134327E-03
      0.420000          0.133846E-03
      0.425000          0.133109E-03
      0.430000          0.132124E-03
      0.435000          0.130911E-03
      0.440000          0.129498E-03
      0.445000          0.127918E-03
      0.450000          0.126212E-03
      0.455000          0.124423E-03
      0.460000          0.122592E-03
      0.465000          0.120762E-03
      0.470000          0.118975E-03
      0.475000          0.117264E-03
      0.480000          0.115660E-03
      0.485000          0.114188E-03
      0.490000          0.112864E-03
      0.495000          0.111699E-03
      0.500000          0.110695E-03
