 I_abs(s)[cm^-1]/c[mg/ml]
       0.00000          0.143290E-01
      0.500000E-02      0.142913E-01
      0.100000E-01      0.141786E-01
      0.150000E-01      0.139927E-01
      0.200000E-01      0.137364E-01
      0.250000E-01      0.134134E-01
      0.300000E-01      0.130286E-01
      0.350000E-01      0.125875E-01
      0.400000E-01      0.120964E-01
      0.450000E-01      0.115621E-01
      0.500000E-01      0.109920E-01
      0.550000E-01      0.103935E-01
      0.600000E-01      0.977437E-02
      0.650000E-01      0.914213E-02
      0.700000E-01      0.850419E-02
      0.750000E-01      0.786765E-02
      0.800000E-01      0.723913E-02
      0.850000E-01      0.662471E-02
      0.900000E-01      0.602982E-02
      0.950000E-01      0.545921E-02
      0.100000          0.491684E-02
      0.105000          0.440593E-02
      0.110000          0.392887E-02
      0.115000          0.348733E-02
      0.120000          0.308220E-02
      0.125000          0.271371E-02
      0.130000          0.238144E-02
      0.135000          0.208443E-02
      0.140000          0.182123E-02
      0.145000          0.158997E-02
      0.150000          0.138851E-02
      0.155000          0.121445E-02
      0.160000          0.106526E-02
      0.165000          0.938324E-03
      0.170000          0.831051E-03
      0.175000          0.740892E-03
      0.180000          0.665420E-03
      0.185000          0.602361E-03
      0.190000          0.549632E-03
      0.195000          0.505359E-03
      0.200000          0.467895E-03
      0.205000          0.435817E-03
      0.210000          0.407933E-03
      0.215000          0.383263E-03
      0.220000          0.361029E-03
      0.225000          0.340631E-03
      0.230000          0.321634E-03
      0.235000          0.303732E-03
      0.240000          0.286736E-03
      0.245000          0.270542E-03
      0.250000          0.255111E-03
      0.255000          0.240451E-03
      0.260000          0.226595E-03
      0.265000          0.213591E-03
      0.270000          0.201484E-03
      0.275000          0.190313E-03
      0.280000          0.180098E-03
      0.285000          0.170844E-03
      0.290000          0.162532E-03
      0.295000          0.155125E-03
      0.300000          0.148566E-03
      0.305000          0.142785E-03
      0.310000          0.137700E-03
      0.315000          0.133221E-03
      0.320000          0.129257E-03
      0.325000          0.125717E-03
      0.330000          0.122515E-03
      0.335000          0.119574E-03
      0.340000          0.116826E-03
      0.345000          0.114213E-03
      0.350000          0.111691E-03
      0.355000          0.109227E-03
      0.360000          0.106800E-03
      0.365000          0.104399E-03
      0.370000          0.102023E-03
      0.375000          0.996774E-04
      0.380000          0.973731E-04
      0.385000          0.951251E-04
      0.390000          0.929506E-04
      0.395000          0.908671E-04
      0.400000          0.888914E-04
      0.405000          0.870384E-04
      0.410000          0.853207E-04
      0.415000          0.837477E-04
      0.420000          0.823259E-04
      0.425000          0.810587E-04
      0.430000          0.799467E-04
      0.435000          0.789881E-04
      0.440000          0.781794E-04
      0.445000          0.775156E-04
      0.450000          0.769912E-04
      0.455000          0.766003E-04
      0.460000          0.763374E-04
      0.465000          0.761974E-04
      0.470000          0.761759E-04
      0.475000          0.762695E-04
      0.480000          0.764756E-04
      0.485000          0.767922E-04
      0.490000          0.772179E-04
      0.495000          0.777512E-04
      0.500000          0.783907E-04
