 I_abs(s)[cm^-1]/c[mg/ml]
       0.00000          0.136820E-01
      0.500000E-02      0.136238E-01
      0.100000E-01      0.134507E-01
      0.150000E-01      0.131670E-01
      0.200000E-01      0.127799E-01
      0.250000E-01      0.122989E-01
      0.300000E-01      0.117356E-01
      0.350000E-01      0.111034E-01
      0.400000E-01      0.104169E-01
      0.450000E-01      0.969120E-02
      0.500000E-01      0.894170E-02
      0.550000E-01      0.818344E-02
      0.600000E-01      0.743064E-02
      0.650000E-01      0.669631E-02
      0.700000E-01      0.599187E-02
      0.750000E-01      0.532694E-02
      0.800000E-01      0.470913E-02
      0.850000E-01      0.414397E-02
      0.900000E-01      0.363493E-02
      0.950000E-01      0.318347E-02
      0.100000          0.278924E-02
      0.105000          0.245027E-02
      0.110000          0.216325E-02
      0.115000          0.192381E-02
      0.120000          0.172681E-02
      0.125000          0.156667E-02
      0.130000          0.143763E-02
      0.135000          0.133400E-02
      0.140000          0.125040E-02
      0.145000          0.118191E-02
      0.150000          0.112421E-02
      0.155000          0.107367E-02
      0.160000          0.102735E-02
      0.165000          0.983035E-03
      0.170000          0.939169E-03
      0.175000          0.894800E-03
      0.180000          0.849487E-03
      0.185000          0.803205E-03
      0.190000          0.756239E-03
      0.195000          0.709084E-03
      0.200000          0.662352E-03
      0.205000          0.616691E-03
      0.210000          0.572719E-03
      0.215000          0.530973E-03
      0.220000          0.491877E-03
      0.225000          0.455723E-03
      0.230000          0.422671E-03
      0.235000          0.392752E-03
      0.240000          0.365887E-03
      0.245000          0.341911E-03
      0.250000          0.320592E-03
      0.255000          0.301663E-03
      0.260000          0.284843E-03
      0.265000          0.269853E-03
      0.270000          0.256439E-03
      0.275000          0.244378E-03
      0.280000          0.233485E-03
      0.285000          0.223617E-03
      0.290000          0.214665E-03
      0.295000          0.206556E-03
      0.300000          0.199240E-03
      0.305000          0.192685E-03
      0.310000          0.186870E-03
      0.315000          0.181774E-03
      0.320000          0.177374E-03
      0.325000          0.173639E-03
      0.330000          0.170529E-03
      0.335000          0.167990E-03
      0.340000          0.165961E-03
      0.345000          0.164371E-03
      0.350000          0.163144E-03
      0.355000          0.162202E-03
      0.360000          0.161468E-03
      0.365000          0.160869E-03
      0.370000          0.160340E-03
      0.375000          0.159823E-03
      0.380000          0.159270E-03
      0.385000          0.158644E-03
      0.390000          0.157919E-03
      0.395000          0.157075E-03
      0.400000          0.156104E-03
      0.405000          0.155003E-03
      0.410000          0.153773E-03
      0.415000          0.152422E-03
      0.420000          0.150959E-03
      0.425000          0.149396E-03
      0.430000          0.147744E-03
      0.435000          0.146016E-03
      0.440000          0.144227E-03
      0.445000          0.142391E-03
      0.450000          0.140521E-03
      0.455000          0.138632E-03
      0.460000          0.136738E-03
      0.465000          0.134854E-03
      0.470000          0.132995E-03
      0.475000          0.131174E-03
      0.480000          0.129405E-03
      0.485000          0.127698E-03
      0.490000          0.126063E-03
      0.495000          0.124508E-03
      0.500000          0.123037E-03
