 I_abs(s)[cm^-1]/c[mg/ml]
       0.00000          0.131707E-01
      0.500000E-02      0.130395E-01
      0.100000E-01      0.126542E-01
      0.150000E-01      0.120383E-01
      0.200000E-01      0.112289E-01
      0.250000E-01      0.102728E-01
      0.300000E-01      0.922259E-02
      0.350000E-01      0.813206E-02
      0.400000E-01      0.705186E-02
      0.450000E-01      0.602585E-02
      0.500000E-01      0.508830E-02
      0.550000E-01      0.426238E-02
      0.600000E-01      0.355986E-02
      0.650000E-01      0.298193E-02
      0.700000E-01      0.252100E-02
      0.750000E-01      0.216301E-02
      0.800000E-01      0.189014E-02
      0.850000E-01      0.168328E-02
      0.900000E-01      0.152431E-02
      0.950000E-01      0.139763E-02
      0.100000          0.129120E-02
      0.105000          0.119683E-02
      0.110000          0.110989E-02
      0.115000          0.102868E-02
      0.120000          0.953516E-03
      0.125000          0.885765E-03
      0.130000          0.827013E-03
      0.135000          0.778416E-03
      0.140000          0.740318E-03
      0.145000          0.712144E-03
      0.150000          0.692502E-03
      0.155000          0.679442E-03
      0.160000          0.670786E-03
      0.165000          0.664447E-03
      0.170000          0.658685E-03
      0.175000          0.652264E-03
      0.180000          0.644496E-03
      0.185000          0.635190E-03
      0.190000          0.624532E-03
      0.195000          0.612937E-03
      0.200000          0.600890E-03
      0.205000          0.588832E-03
      0.210000          0.577078E-03
      0.215000          0.565789E-03
      0.220000          0.554988E-03
      0.225000          0.544593E-03
      0.230000          0.534473E-03
      0.235000          0.524496E-03
      0.240000          0.514557E-03
      0.245000          0.504598E-03
      0.250000          0.494594E-03
      0.255000          0.484545E-03
      0.260000          0.474443E-03
      0.265000          0.464259E-03
      0.270000          0.453926E-03
      0.275000          0.443343E-03
      0.280000          0.432389E-03
      0.285000          0.420942E-03
      0.290000          0.408904E-03
      0.295000          0.396224E-03
      0.300000          0.382914E-03
      0.305000          0.369050E-03
      0.310000          0.354771E-03
      0.315000          0.340260E-03
      0.320000          0.325729E-03
      0.325000          0.311389E-03
      0.330000          0.297436E-03
      0.335000          0.284037E-03
      0.340000          0.271319E-03
      0.345000          0.259368E-03
      0.350000          0.248234E-03
      0.355000          0.237940E-03
      0.360000          0.228487E-03
      0.365000          0.219861E-03
      0.370000          0.212037E-03
      0.375000          0.204983E-03
      0.380000          0.198655E-03
      0.385000          0.193002E-03
      0.390000          0.187960E-03
      0.395000          0.183458E-03
      0.400000          0.179419E-03
      0.405000          0.175768E-03
      0.410000          0.172435E-03
      0.415000          0.169366E-03
      0.420000          0.166525E-03
      0.425000          0.163895E-03
      0.430000          0.161475E-03
      0.435000          0.159275E-03
      0.440000          0.157308E-03
      0.445000          0.155576E-03
      0.450000          0.154066E-03
      0.455000          0.152739E-03
      0.460000          0.151530E-03
      0.465000          0.150351E-03
      0.470000          0.149096E-03
      0.475000          0.147656E-03
      0.480000          0.145926E-03
      0.485000          0.143824E-03
      0.490000          0.141300E-03
      0.495000          0.138340E-03
      0.500000          0.134973E-03
