 I_abs(s)[cm^-1]/c[mg/ml]
       0.00000          0.137901E-01
      0.500000E-02      0.137387E-01
      0.100000E-01      0.135855E-01
      0.150000E-01      0.133337E-01
      0.200000E-01      0.129886E-01
      0.250000E-01      0.125572E-01
      0.300000E-01      0.120482E-01
      0.350000E-01      0.114718E-01
      0.400000E-01      0.108392E-01
      0.450000E-01      0.101624E-01
      0.500000E-01      0.945352E-02
      0.550000E-01      0.872517E-02
      0.600000E-01      0.798945E-02
      0.650000E-01      0.725797E-02
      0.700000E-01      0.654147E-02
      0.750000E-01      0.584962E-02
      0.800000E-01      0.519082E-02
      0.850000E-01      0.457208E-02
      0.900000E-01      0.399892E-02
      0.950000E-01      0.347532E-02
      0.100000          0.300378E-02
      0.105000          0.258537E-02
      0.110000          0.221982E-02
      0.115000          0.190567E-02
      0.120000          0.164044E-02
      0.125000          0.142080E-02
      0.130000          0.124276E-02
      0.135000          0.110188E-02
      0.140000          0.993442E-03
      0.145000          0.912631E-03
      0.150000          0.854685E-03
      0.155000          0.815038E-03
      0.160000          0.789427E-03
      0.165000          0.773988E-03
      0.170000          0.765306E-03
      0.175000          0.760464E-03
      0.180000          0.757048E-03
      0.185000          0.753146E-03
      0.190000          0.747324E-03
      0.195000          0.738591E-03
      0.200000          0.726349E-03
      0.205000          0.710342E-03
      0.210000          0.690597E-03
      0.215000          0.667366E-03
      0.220000          0.641071E-03
      0.225000          0.612250E-03
      0.230000          0.581511E-03
      0.235000          0.549488E-03
      0.240000          0.516810E-03
      0.245000          0.484070E-03
      0.250000          0.451809E-03
      0.255000          0.420497E-03
      0.260000          0.390529E-03
      0.265000          0.362215E-03
      0.270000          0.335789E-03
      0.275000          0.311403E-03
      0.280000          0.289141E-03
      0.285000          0.269023E-03
      0.290000          0.251012E-03
      0.295000          0.235029E-03
      0.300000          0.220954E-03
      0.305000          0.208643E-03
      0.310000          0.197931E-03
      0.315000          0.188643E-03
      0.320000          0.180598E-03
      0.325000          0.173616E-03
      0.330000          0.167525E-03
      0.335000          0.162163E-03
      0.340000          0.157383E-03
      0.345000          0.153053E-03
      0.350000          0.149060E-03
      0.355000          0.145311E-03
      0.360000          0.141733E-03
      0.365000          0.138270E-03
      0.370000          0.134886E-03
      0.375000          0.131562E-03
      0.380000          0.128292E-03
      0.385000          0.125085E-03
      0.390000          0.121957E-03
      0.395000          0.118933E-03
      0.400000          0.116044E-03
      0.405000          0.113320E-03
      0.410000          0.110792E-03
      0.415000          0.108490E-03
      0.420000          0.106435E-03
      0.425000          0.104648E-03
      0.430000          0.103138E-03
      0.435000          0.101909E-03
      0.440000          0.100956E-03
      0.445000          0.100269E-03
      0.450000          0.998293E-04
      0.455000          0.996118E-04
      0.460000          0.995882E-04
      0.465000          0.997264E-04
      0.470000          0.999924E-04
      0.475000          0.100352E-03
      0.480000          0.100772E-03
      0.485000          0.101221E-03
      0.490000          0.101671E-03
      0.495000          0.102099E-03
      0.500000          0.102485E-03
