 I_abs(s)[cm^-1]/c[mg/ml]
       0.00000          0.134824E-01
      0.500000E-02      0.134312E-01
      0.100000E-01      0.132784E-01
      0.150000E-01      0.130275E-01
      0.200000E-01      0.126838E-01
      0.250000E-01      0.122545E-01
      0.300000E-01      0.117486E-01
      0.350000E-01      0.111763E-01
      0.400000E-01      0.105492E-01
      0.450000E-01      0.987940E-02
      0.500000E-01      0.917946E-02
      0.550000E-01      0.846203E-02
      0.600000E-01      0.773942E-02
      0.650000E-01      0.702333E-02
      0.700000E-01      0.632456E-02
      0.750000E-01      0.565277E-02
      0.800000E-01      0.501624E-02
      0.850000E-01      0.442180E-02
      0.900000E-01      0.387469E-02
      0.950000E-01      0.337856E-02
      0.100000          0.293548E-02
      0.105000          0.254603E-02
      0.110000          0.220942E-02
      0.115000          0.192360E-02
      0.120000          0.168551E-02
      0.125000          0.149125E-02
      0.130000          0.133628E-02
      0.135000          0.121565E-02
      0.140000          0.112419E-02
      0.145000          0.105674E-02
      0.150000          0.100828E-02
      0.155000          0.974084E-03
      0.160000          0.949864E-03
      0.165000          0.931837E-03
      0.170000          0.916788E-03
      0.175000          0.902105E-03
      0.180000          0.885778E-03
      0.185000          0.866379E-03
      0.190000          0.843017E-03
      0.195000          0.815287E-03
      0.200000          0.783196E-03
      0.205000          0.747088E-03
      0.210000          0.707567E-03
      0.215000          0.665416E-03
      0.220000          0.621524E-03
      0.225000          0.576824E-03
      0.230000          0.532229E-03
      0.235000          0.488588E-03
      0.240000          0.446652E-03
      0.245000          0.407046E-03
      0.250000          0.370254E-03
      0.255000          0.336619E-03
      0.260000          0.306339E-03
      0.265000          0.279483E-03
      0.270000          0.256006E-03
      0.275000          0.235763E-03
      0.280000          0.218536E-03
      0.285000          0.204049E-03
      0.290000          0.191992E-03
      0.295000          0.182042E-03
      0.300000          0.173872E-03
      0.305000          0.167171E-03
      0.310000          0.161652E-03
      0.315000          0.157060E-03
      0.320000          0.153173E-03
      0.325000          0.149807E-03
      0.330000          0.146816E-03
      0.335000          0.144086E-03
      0.340000          0.141533E-03
      0.345000          0.139101E-03
      0.350000          0.136752E-03
      0.355000          0.134467E-03
      0.360000          0.132235E-03
      0.365000          0.130057E-03
      0.370000          0.127935E-03
      0.375000          0.125874E-03
      0.380000          0.123880E-03
      0.385000          0.121957E-03
      0.390000          0.120107E-03
      0.395000          0.118332E-03
      0.400000          0.116632E-03
      0.405000          0.115006E-03
      0.410000          0.113453E-03
      0.415000          0.111974E-03
      0.420000          0.110570E-03
      0.425000          0.109244E-03
      0.430000          0.108000E-03
      0.435000          0.106844E-03
      0.440000          0.105783E-03
      0.445000          0.104825E-03
      0.450000          0.103978E-03
      0.455000          0.103251E-03
      0.460000          0.102651E-03
      0.465000          0.102183E-03
      0.470000          0.101850E-03
      0.475000          0.101652E-03
      0.480000          0.101588E-03
      0.485000          0.101649E-03
      0.490000          0.101827E-03
      0.495000          0.102110E-03
      0.500000          0.102480E-03
