 I_abs(s)[cm^-1]/c[mg/ml]
       0.00000          0.143263E-01
      0.500000E-02      0.142687E-01
      0.100000E-01      0.140972E-01
      0.150000E-01      0.138154E-01
      0.200000E-01      0.134297E-01
      0.250000E-01      0.129484E-01
      0.300000E-01      0.123818E-01
      0.350000E-01      0.117418E-01
      0.400000E-01      0.110414E-01
      0.450000E-01      0.102947E-01
      0.500000E-01      0.951600E-02
      0.550000E-01      0.871965E-02
      0.600000E-01      0.791961E-02
      0.650000E-01      0.712908E-02
      0.700000E-01      0.636014E-02
      0.750000E-01      0.562351E-02
      0.800000E-01      0.492832E-02
      0.850000E-01      0.428197E-02
      0.900000E-01      0.369001E-02
      0.950000E-01      0.315619E-02
      0.100000          0.268243E-02
      0.105000          0.226900E-02
      0.110000          0.191460E-02
      0.115000          0.161661E-02
      0.120000          0.137127E-02
      0.125000          0.117393E-02
      0.130000          0.101934E-02
      0.135000          0.901837E-03
      0.140000          0.815600E-03
      0.145000          0.754879E-03
      0.150000          0.714169E-03
      0.155000          0.688363E-03
      0.160000          0.672882E-03
      0.165000          0.663755E-03
      0.170000          0.657668E-03
      0.175000          0.651988E-03
      0.180000          0.644741E-03
      0.185000          0.634581E-03
      0.190000          0.620726E-03
      0.195000          0.602884E-03
      0.200000          0.581172E-03
      0.205000          0.556019E-03
      0.210000          0.528085E-03
      0.215000          0.498169E-03
      0.220000          0.467138E-03
      0.225000          0.435855E-03
      0.230000          0.405128E-03
      0.235000          0.375665E-03
      0.240000          0.348049E-03
      0.245000          0.322720E-03
      0.250000          0.299968E-03
      0.255000          0.279943E-03
      0.260000          0.262663E-03
      0.265000          0.248033E-03
      0.270000          0.235871E-03
      0.275000          0.225925E-03
      0.280000          0.217902E-03
      0.285000          0.211491E-03
      0.290000          0.206377E-03
      0.295000          0.202261E-03
      0.300000          0.198876E-03
      0.305000          0.195988E-03
      0.310000          0.193407E-03
      0.315000          0.190983E-03
      0.320000          0.188609E-03
      0.325000          0.186214E-03
      0.330000          0.183757E-03
      0.335000          0.181223E-03
      0.340000          0.178613E-03
      0.345000          0.175938E-03
      0.350000          0.173214E-03
      0.355000          0.170457E-03
      0.360000          0.167677E-03
      0.365000          0.164880E-03
      0.370000          0.162064E-03
      0.375000          0.159219E-03
      0.380000          0.156330E-03
      0.385000          0.153378E-03
      0.390000          0.150343E-03
      0.395000          0.147204E-03
      0.400000          0.143947E-03
      0.405000          0.140562E-03
      0.410000          0.137048E-03
      0.415000          0.133410E-03
      0.420000          0.129666E-03
      0.425000          0.125841E-03
      0.430000          0.121967E-03
      0.435000          0.118084E-03
      0.440000          0.114236E-03
      0.445000          0.110471E-03
      0.450000          0.106833E-03
      0.455000          0.103368E-03
      0.460000          0.100114E-03
      0.465000          0.971066E-04
      0.470000          0.943701E-04
      0.475000          0.919217E-04
      0.480000          0.897695E-04
      0.485000          0.879124E-04
      0.490000          0.863409E-04
      0.495000          0.850383E-04
      0.500000          0.839816E-04
