 I_abs(s)[cm^-1]/c[mg/ml]
       0.00000          0.141693E-01
      0.500000E-02      0.140938E-01
      0.100000E-01      0.138700E-01
      0.150000E-01      0.135057E-01
      0.200000E-01      0.130133E-01
      0.250000E-01      0.124092E-01
      0.300000E-01      0.117132E-01
      0.350000E-01      0.109467E-01
      0.400000E-01      0.101326E-01
      0.450000E-01      0.929322E-02
      0.500000E-01      0.845001E-02
      0.550000E-01      0.762225E-02
      0.600000E-01      0.682651E-02
      0.650000E-01      0.607611E-02
      0.700000E-01      0.538088E-02
      0.750000E-01      0.474716E-02
      0.800000E-01      0.417796E-02
      0.850000E-01      0.367335E-02
      0.900000E-01      0.323092E-02
      0.950000E-01      0.284641E-02
      0.100000          0.251427E-02
      0.105000          0.222826E-02
      0.110000          0.198199E-02
      0.115000          0.176932E-02
      0.120000          0.158474E-02
      0.125000          0.142353E-02
      0.130000          0.128185E-02
      0.135000          0.115676E-02
      0.140000          0.104611E-02
      0.145000          0.948401E-03
      0.150000          0.862587E-03
      0.155000          0.787913E-03
      0.160000          0.723739E-03
      0.165000          0.669407E-03
      0.170000          0.624151E-03
      0.175000          0.587050E-03
      0.180000          0.557026E-03
      0.185000          0.532881E-03
      0.190000          0.513356E-03
      0.195000          0.497207E-03
      0.200000          0.483280E-03
      0.205000          0.470579E-03
      0.210000          0.458320E-03
      0.215000          0.445949E-03
      0.220000          0.433154E-03
      0.225000          0.419838E-03
      0.230000          0.406083E-03
      0.235000          0.392098E-03
      0.240000          0.378157E-03
      0.245000          0.364550E-03
      0.250000          0.351527E-03
      0.255000          0.339265E-03
      0.260000          0.327847E-03
      0.265000          0.317253E-03
      0.270000          0.307375E-03
      0.275000          0.298029E-03
      0.280000          0.288994E-03
      0.285000          0.280037E-03
      0.290000          0.270946E-03
      0.295000          0.261559E-03
      0.300000          0.251782E-03
      0.305000          0.241598E-03
      0.310000          0.231066E-03
      0.315000          0.220313E-03
      0.320000          0.209517E-03
      0.325000          0.198887E-03
      0.330000          0.188635E-03
      0.335000          0.178961E-03
      0.340000          0.170028E-03
      0.345000          0.161951E-03
      0.350000          0.154787E-03
      0.355000          0.148537E-03
      0.360000          0.143149E-03
      0.365000          0.138529E-03
      0.370000          0.134555E-03
      0.375000          0.131092E-03
      0.380000          0.128004E-03
      0.385000          0.125174E-03
      0.390000          0.122507E-03
      0.395000          0.119940E-03
      0.400000          0.117445E-03
      0.405000          0.115024E-03
      0.410000          0.112706E-03
      0.415000          0.110538E-03
      0.420000          0.108578E-03
      0.425000          0.106880E-03
      0.430000          0.105494E-03
      0.435000          0.104450E-03
      0.440000          0.103760E-03
      0.445000          0.103413E-03
      0.450000          0.103373E-03
      0.455000          0.103588E-03
      0.460000          0.103987E-03
      0.465000          0.104491E-03
      0.470000          0.105018E-03
      0.475000          0.105486E-03
      0.480000          0.105825E-03
      0.485000          0.105973E-03
      0.490000          0.105887E-03
      0.495000          0.105537E-03
      0.500000          0.104911E-03
