 I_abs(s)[cm^-1]/c[mg/ml]
       0.00000          0.140599E-01
      0.500000E-02      0.139970E-01
      0.100000E-01      0.138099E-01
      0.150000E-01      0.135040E-01
      0.200000E-01      0.130876E-01
      0.250000E-01      0.125721E-01
      0.300000E-01      0.119710E-01
      0.350000E-01      0.112998E-01
      0.400000E-01      0.105748E-01
      0.450000E-01      0.981282E-02
      0.500000E-01      0.903061E-02
      0.550000E-01      0.824394E-02
      0.600000E-01      0.746731E-02
      0.650000E-01      0.671348E-02
      0.700000E-01      0.599320E-02
      0.750000E-01      0.531504E-02
      0.800000E-01      0.468534E-02
      0.850000E-01      0.410826E-02
      0.900000E-01      0.358595E-02
      0.950000E-01      0.311876E-02
      0.100000          0.270551E-02
      0.105000          0.234383E-02
      0.110000          0.203040E-02
      0.115000          0.176133E-02
      0.120000          0.153233E-02
      0.125000          0.133904E-02
      0.130000          0.117711E-02
      0.135000          0.104245E-02
      0.140000          0.931210E-03
      0.145000          0.839929E-03
      0.150000          0.765501E-03
      0.155000          0.705188E-03
      0.160000          0.656596E-03
      0.165000          0.617641E-03
      0.170000          0.586518E-03
      0.175000          0.561654E-03
      0.180000          0.541690E-03
      0.185000          0.525441E-03
      0.190000          0.511886E-03
      0.195000          0.500149E-03
      0.200000          0.489491E-03
      0.205000          0.479301E-03
      0.210000          0.469091E-03
      0.215000          0.458493E-03
      0.220000          0.447249E-03
      0.225000          0.435205E-03
      0.230000          0.422299E-03
      0.235000          0.408549E-03
      0.240000          0.394042E-03
      0.245000          0.378916E-03
      0.250000          0.363350E-03
      0.255000          0.347546E-03
      0.260000          0.331718E-03
      0.265000          0.316082E-03
      0.270000          0.300844E-03
      0.275000          0.286191E-03
      0.280000          0.272289E-03
      0.285000          0.259275E-03
      0.290000          0.247252E-03
      0.295000          0.236294E-03
      0.300000          0.226439E-03
      0.305000          0.217693E-03
      0.310000          0.210031E-03
      0.315000          0.203402E-03
      0.320000          0.197728E-03
      0.325000          0.192915E-03
      0.330000          0.188853E-03
      0.335000          0.185420E-03
      0.340000          0.182495E-03
      0.345000          0.179953E-03
      0.350000          0.177679E-03
      0.355000          0.175565E-03
      0.360000          0.173516E-03
      0.365000          0.171453E-03
      0.370000          0.169311E-03
      0.375000          0.167044E-03
      0.380000          0.164620E-03
      0.385000          0.162021E-03
      0.390000          0.159241E-03
      0.395000          0.156286E-03
      0.400000          0.153168E-03
      0.405000          0.149905E-03
      0.410000          0.146519E-03
      0.415000          0.143034E-03
      0.420000          0.139475E-03
      0.425000          0.135866E-03
      0.430000          0.132232E-03
      0.435000          0.128596E-03
      0.440000          0.124980E-03
      0.445000          0.121406E-03
      0.450000          0.117895E-03
      0.455000          0.114467E-03
      0.460000          0.111141E-03
      0.465000          0.107935E-03
      0.470000          0.104865E-03
      0.475000          0.101945E-03
      0.480000          0.991867E-04
      0.485000          0.965977E-04
      0.490000          0.941830E-04
      0.495000          0.919434E-04
      0.500000          0.898762E-04
