 I_abs(s)[cm^-1]/c[mg/ml]
       0.00000          0.144525E-01
      0.500000E-02      0.143941E-01
      0.100000E-01      0.142203E-01
      0.150000E-01      0.139355E-01
      0.200000E-01      0.135468E-01
      0.250000E-01      0.130638E-01
      0.300000E-01      0.124979E-01
      0.350000E-01      0.118625E-01
      0.400000E-01      0.111719E-01
      0.450000E-01      0.104411E-01
      0.500000E-01      0.968502E-02
      0.550000E-01      0.891835E-02
      0.600000E-01      0.815482E-02
      0.650000E-01      0.740692E-02
      0.700000E-01      0.668554E-02
      0.750000E-01      0.599981E-02
      0.800000E-01      0.535687E-02
      0.850000E-01      0.476193E-02
      0.900000E-01      0.421823E-02
      0.950000E-01      0.372722E-02
      0.100000          0.328869E-02
      0.105000          0.290104E-02
      0.110000          0.256153E-02
      0.115000          0.226655E-02
      0.120000          0.201190E-02
      0.125000          0.179307E-02
      0.130000          0.160543E-02
      0.135000          0.144449E-02
      0.140000          0.130603E-02
      0.145000          0.118624E-02
      0.150000          0.108174E-02
      0.155000          0.989719E-03
      0.160000          0.907833E-03
      0.165000          0.834247E-03
      0.170000          0.767554E-03
      0.175000          0.706723E-03
      0.180000          0.651026E-03
      0.185000          0.599962E-03
      0.190000          0.553193E-03
      0.195000          0.510480E-03
      0.200000          0.471633E-03
      0.205000          0.436477E-03
      0.210000          0.404821E-03
      0.215000          0.376449E-03
      0.220000          0.351111E-03
      0.225000          0.328530E-03
      0.230000          0.308412E-03
      0.235000          0.290454E-03
      0.240000          0.274364E-03
      0.245000          0.259867E-03
      0.250000          0.246718E-03
      0.255000          0.234713E-03
      0.260000          0.223687E-03
      0.265000          0.213516E-03
      0.270000          0.204117E-03
      0.275000          0.195440E-03
      0.280000          0.187458E-03
      0.285000          0.180164E-03
      0.290000          0.173562E-03
      0.295000          0.167655E-03
      0.300000          0.162443E-03
      0.305000          0.157918E-03
      0.310000          0.154057E-03
      0.315000          0.150826E-03
      0.320000          0.148177E-03
      0.325000          0.146050E-03
      0.330000          0.144378E-03
      0.335000          0.143087E-03
      0.340000          0.142102E-03
      0.345000          0.141349E-03
      0.350000          0.140759E-03
      0.355000          0.140269E-03
      0.360000          0.139825E-03
      0.365000          0.139382E-03
      0.370000          0.138906E-03
      0.375000          0.138370E-03
      0.380000          0.137757E-03
      0.385000          0.137054E-03
      0.390000          0.136256E-03
      0.395000          0.135362E-03
      0.400000          0.134373E-03
      0.405000          0.133291E-03
      0.410000          0.132122E-03
      0.415000          0.130870E-03
      0.420000          0.129541E-03
      0.425000          0.128141E-03
      0.430000          0.126679E-03
      0.435000          0.125163E-03
      0.440000          0.123604E-03
      0.445000          0.122015E-03
      0.450000          0.120410E-03
      0.455000          0.118807E-03
      0.460000          0.117224E-03
      0.465000          0.115679E-03
      0.470000          0.114192E-03
      0.475000          0.112780E-03
      0.480000          0.111459E-03
      0.485000          0.110240E-03
      0.490000          0.109131E-03
      0.495000          0.108134E-03
      0.500000          0.107247E-03
