 I_abs(s)[cm^-1]/c[mg/ml]
       0.00000          0.143027E-01
      0.500000E-02      0.142520E-01
      0.100000E-01      0.141007E-01
      0.150000E-01      0.138520E-01
      0.200000E-01      0.135105E-01
      0.250000E-01      0.130830E-01
      0.300000E-01      0.125777E-01
      0.350000E-01      0.120039E-01
      0.400000E-01      0.113722E-01
      0.450000E-01      0.106939E-01
      0.500000E-01      0.998078E-02
      0.550000E-01      0.924476E-02
      0.600000E-01      0.849758E-02
      0.650000E-01      0.775057E-02
      0.700000E-01      0.701433E-02
      0.750000E-01      0.629858E-02
      0.800000E-01      0.561187E-02
      0.850000E-01      0.496152E-02
      0.900000E-01      0.435350E-02
      0.950000E-01      0.379233E-02
      0.100000          0.328114E-02
      0.105000          0.282166E-02
      0.110000          0.241433E-02
      0.115000          0.205837E-02
      0.120000          0.175197E-02
      0.125000          0.149241E-02
      0.130000          0.127624E-02
      0.135000          0.109948E-02
      0.140000          0.957765E-03
      0.145000          0.846552E-03
      0.150000          0.761259E-03
      0.155000          0.697416E-03
      0.160000          0.650783E-03
      0.165000          0.617450E-03
      0.170000          0.593917E-03
      0.175000          0.577139E-03
      0.180000          0.564557E-03
      0.185000          0.554101E-03
      0.190000          0.544180E-03
      0.195000          0.533645E-03
      0.200000          0.521752E-03
      0.205000          0.508108E-03
      0.210000          0.492608E-03
      0.215000          0.475380E-03
      0.220000          0.456718E-03
      0.225000          0.437028E-03
      0.230000          0.416777E-03
      0.235000          0.396441E-03
      0.240000          0.376475E-03
      0.245000          0.357279E-03
      0.250000          0.339179E-03
      0.255000          0.322417E-03
      0.260000          0.307145E-03
      0.265000          0.293427E-03
      0.270000          0.281248E-03
      0.275000          0.270525E-03
      0.280000          0.261118E-03
      0.285000          0.252854E-03
      0.290000          0.245534E-03
      0.295000          0.238954E-03
      0.300000          0.232915E-03
      0.305000          0.227237E-03
      0.310000          0.221765E-03
      0.315000          0.216379E-03
      0.320000          0.210990E-03
      0.325000          0.205548E-03
      0.330000          0.200035E-03
      0.335000          0.194462E-03
      0.340000          0.188866E-03
      0.345000          0.183299E-03
      0.350000          0.177828E-03
      0.355000          0.172521E-03
      0.360000          0.167445E-03
      0.365000          0.162663E-03
      0.370000          0.158223E-03
      0.375000          0.154159E-03
      0.380000          0.150488E-03
      0.385000          0.147211E-03
      0.390000          0.144312E-03
      0.395000          0.141757E-03
      0.400000          0.139501E-03
      0.405000          0.137489E-03
      0.410000          0.135658E-03
      0.415000          0.133944E-03
      0.420000          0.132282E-03
      0.425000          0.130609E-03
      0.430000          0.128872E-03
      0.435000          0.127024E-03
      0.440000          0.125031E-03
      0.445000          0.122870E-03
      0.450000          0.120529E-03
      0.455000          0.118010E-03
      0.460000          0.115325E-03
      0.465000          0.112498E-03
      0.470000          0.109559E-03
      0.475000          0.106546E-03
      0.480000          0.103501E-03
      0.485000          0.100470E-03
      0.490000          0.974977E-04
      0.495000          0.946268E-04
      0.500000          0.918978E-04
