 I_abs(s)[cm^-1]/c[mg/ml]
       0.00000          0.132758E-01
      0.500000E-02      0.131814E-01
      0.100000E-01      0.129023E-01
      0.150000E-01      0.124511E-01
      0.200000E-01      0.118476E-01
      0.250000E-01      0.111174E-01
      0.300000E-01      0.102908E-01
      0.350000E-01      0.940017E-02
      0.400000E-01      0.847851E-02
      0.450000E-01      0.755718E-02
      0.500000E-01      0.666440E-02
      0.550000E-01      0.582387E-02
      0.600000E-01      0.505388E-02
      0.650000E-01      0.436690E-02
      0.700000E-01      0.376952E-02
      0.750000E-01      0.326294E-02
      0.800000E-01      0.284368E-02
      0.850000E-01      0.250455E-02
      0.900000E-01      0.223577E-02
      0.950000E-01      0.202610E-02
      0.100000          0.186380E-02
      0.105000          0.173760E-02
      0.110000          0.163731E-02
      0.115000          0.155431E-02
      0.120000          0.148174E-02
      0.125000          0.141454E-02
      0.130000          0.134935E-02
      0.135000          0.128418E-02
      0.140000          0.121820E-02
      0.145000          0.115132E-02
      0.150000          0.108399E-02
      0.155000          0.101685E-02
      0.160000          0.950638E-03
      0.165000          0.885997E-03
      0.170000          0.823464E-03
      0.175000          0.763445E-03
      0.180000          0.706237E-03
      0.185000          0.652063E-03
      0.190000          0.601108E-03
      0.195000          0.553542E-03
      0.200000          0.509534E-03
      0.205000          0.469245E-03
      0.210000          0.432808E-03
      0.215000          0.400309E-03
      0.220000          0.371757E-03
      0.225000          0.347072E-03
      0.230000          0.326071E-03
      0.235000          0.308476E-03
      0.240000          0.293931E-03
      0.245000          0.282023E-03
      0.250000          0.272314E-03
      0.255000          0.264372E-03
      0.260000          0.257797E-03
      0.265000          0.252239E-03
      0.270000          0.247413E-03
      0.275000          0.243096E-03
      0.280000          0.239121E-03
      0.285000          0.235368E-03
      0.290000          0.231750E-03
      0.295000          0.228196E-03
      0.300000          0.224647E-03
      0.305000          0.221045E-03
      0.310000          0.217335E-03
      0.315000          0.213471E-03
      0.320000          0.209418E-03
      0.325000          0.205163E-03
      0.330000          0.200720E-03
      0.335000          0.196132E-03
      0.340000          0.191469E-03
      0.345000          0.186825E-03
      0.350000          0.182303E-03
      0.355000          0.178009E-03
      0.360000          0.174033E-03
      0.365000          0.170439E-03
      0.370000          0.167255E-03
      0.375000          0.164471E-03
      0.380000          0.162036E-03
      0.385000          0.159864E-03
      0.390000          0.157846E-03
      0.395000          0.155860E-03
      0.400000          0.153785E-03
      0.405000          0.151516E-03
      0.410000          0.148973E-03
      0.415000          0.146110E-03
      0.420000          0.142918E-03
      0.425000          0.139423E-03
      0.430000          0.135683E-03
      0.435000          0.131776E-03
      0.440000          0.127797E-03
      0.445000          0.123840E-03
      0.450000          0.119995E-03
      0.455000          0.116336E-03
      0.460000          0.112918E-03
      0.465000          0.109774E-03
      0.470000          0.106914E-03
      0.475000          0.104329E-03
      0.480000          0.101992E-03
      0.485000          0.998670E-04
      0.490000          0.979117E-04
      0.495000          0.960823E-04
      0.500000          0.943380E-04
