 I_abs(s)[cm^-1]/c[mg/ml]
       0.00000          0.145159E-01
      0.500000E-02      0.144617E-01
      0.100000E-01      0.143005E-01
      0.150000E-01      0.140354E-01
      0.200000E-01      0.136720E-01
      0.250000E-01      0.132177E-01
      0.300000E-01      0.126816E-01
      0.350000E-01      0.120743E-01
      0.400000E-01      0.114076E-01
      0.450000E-01      0.106938E-01
      0.500000E-01      0.994604E-02
      0.550000E-01      0.917730E-02
      0.600000E-01      0.840038E-02
      0.650000E-01      0.762748E-02
      0.700000E-01      0.686992E-02
      0.750000E-01      0.613791E-02
      0.800000E-01      0.544033E-02
      0.850000E-01      0.478456E-02
      0.900000E-01      0.417646E-02
      0.950000E-01      0.362025E-02
      0.100000          0.311858E-02
      0.105000          0.267256E-02
      0.110000          0.228191E-02
      0.115000          0.194507E-02
      0.120000          0.165939E-02
      0.125000          0.142131E-02
      0.130000          0.122661E-02
      0.135000          0.107055E-02
      0.140000          0.948148E-03
      0.145000          0.854302E-03
      0.150000          0.784012E-03
      0.155000          0.732507E-03
      0.160000          0.695372E-03
      0.165000          0.668643E-03
      0.170000          0.648872E-03
      0.175000          0.633168E-03
      0.180000          0.619199E-03
      0.185000          0.605191E-03
      0.190000          0.589885E-03
      0.195000          0.572497E-03
      0.200000          0.552650E-03
      0.205000          0.530313E-03
      0.210000          0.505722E-03
      0.215000          0.479315E-03
      0.220000          0.451658E-03
      0.225000          0.423386E-03
      0.230000          0.395148E-03
      0.235000          0.367560E-03
      0.240000          0.341171E-03
      0.245000          0.316440E-03
      0.250000          0.293717E-03
      0.255000          0.273238E-03
      0.260000          0.255128E-03
      0.265000          0.239406E-03
      0.270000          0.226001E-03
      0.275000          0.214764E-03
      0.280000          0.205490E-03
      0.285000          0.197935E-03
      0.290000          0.191833E-03
      0.295000          0.186913E-03
      0.300000          0.182913E-03
      0.305000          0.179594E-03
      0.310000          0.176741E-03
      0.315000          0.174180E-03
      0.320000          0.171767E-03
      0.325000          0.169401E-03
      0.330000          0.167011E-03
      0.335000          0.164559E-03
      0.340000          0.162034E-03
      0.345000          0.159442E-03
      0.350000          0.156806E-03
      0.355000          0.154155E-03
      0.360000          0.151523E-03
      0.365000          0.148943E-03
      0.370000          0.146440E-03
      0.375000          0.144035E-03
      0.380000          0.141739E-03
      0.385000          0.139555E-03
      0.390000          0.137476E-03
      0.395000          0.135488E-03
      0.400000          0.133571E-03
      0.405000          0.131703E-03
      0.410000          0.129859E-03
      0.415000          0.128013E-03
      0.420000          0.126146E-03
      0.425000          0.124241E-03
      0.430000          0.122285E-03
      0.435000          0.120274E-03
      0.440000          0.118209E-03
      0.445000          0.116099E-03
      0.450000          0.113956E-03
      0.455000          0.111801E-03
      0.460000          0.109653E-03
      0.465000          0.107537E-03
      0.470000          0.105477E-03
      0.475000          0.103495E-03
      0.480000          0.101613E-03
      0.485000          0.998451E-04
      0.490000          0.982040E-04
      0.495000          0.966958E-04
      0.500000          0.953211E-04
