 I_abs(s)[cm^-1]/c[mg/ml]
       0.00000          0.145873E-01
      0.500000E-02      0.145316E-01
      0.100000E-01      0.143659E-01
      0.150000E-01      0.140943E-01
      0.200000E-01      0.137233E-01
      0.250000E-01      0.132618E-01
      0.300000E-01      0.127204E-01
      0.350000E-01      0.121114E-01
      0.400000E-01      0.114480E-01
      0.450000E-01      0.107441E-01
      0.500000E-01      0.100136E-01
      0.550000E-01      0.926998E-02
      0.600000E-01      0.852598E-02
      0.650000E-01      0.779322E-02
      0.700000E-01      0.708186E-02
      0.750000E-01      0.640046E-02
      0.800000E-01      0.575583E-02
      0.850000E-01      0.515304E-02
      0.900000E-01      0.459542E-02
      0.950000E-01      0.408470E-02
      0.100000          0.362117E-02
      0.105000          0.320388E-02
      0.110000          0.283089E-02
      0.115000          0.249950E-02
      0.120000          0.220647E-02
      0.125000          0.194830E-02
      0.130000          0.172135E-02
      0.135000          0.152208E-02
      0.140000          0.134712E-02
      0.145000          0.119341E-02
      0.150000          0.105822E-02
      0.155000          0.939200E-03
      0.160000          0.834344E-03
      0.165000          0.741998E-03
      0.170000          0.660795E-03
      0.175000          0.589616E-03
      0.180000          0.527528E-03
      0.185000          0.473737E-03
      0.190000          0.427537E-03
      0.195000          0.388276E-03
      0.200000          0.355321E-03
      0.205000          0.328048E-03
      0.210000          0.305823E-03
      0.215000          0.288010E-03
      0.220000          0.273973E-03
      0.225000          0.263087E-03
      0.230000          0.254750E-03
      0.235000          0.248400E-03
      0.240000          0.243522E-03
      0.245000          0.239663E-03
      0.250000          0.236436E-03
      0.255000          0.233525E-03
      0.260000          0.230683E-03
      0.265000          0.227732E-03
      0.270000          0.224554E-03
      0.275000          0.221084E-03
      0.280000          0.217303E-03
      0.285000          0.213227E-03
      0.290000          0.208897E-03
      0.295000          0.204372E-03
      0.300000          0.199722E-03
      0.305000          0.195017E-03
      0.310000          0.190328E-03
      0.315000          0.185720E-03
      0.320000          0.181250E-03
      0.325000          0.176963E-03
      0.330000          0.172896E-03
      0.335000          0.169074E-03
      0.340000          0.165511E-03
      0.345000          0.162214E-03
      0.350000          0.159177E-03
      0.355000          0.156390E-03
      0.360000          0.153836E-03
      0.365000          0.151490E-03
      0.370000          0.149327E-03
      0.375000          0.147316E-03
      0.380000          0.145428E-03
      0.385000          0.143632E-03
      0.390000          0.141897E-03
      0.395000          0.140196E-03
      0.400000          0.138505E-03
      0.405000          0.136802E-03
      0.410000          0.135071E-03
      0.415000          0.133298E-03
      0.420000          0.131475E-03
      0.425000          0.129597E-03
      0.430000          0.127663E-03
      0.435000          0.125676E-03
      0.440000          0.123638E-03
      0.445000          0.121557E-03
      0.450000          0.119440E-03
      0.455000          0.117294E-03
      0.460000          0.115126E-03
      0.465000          0.112945E-03
      0.470000          0.110757E-03
      0.475000          0.108568E-03
      0.480000          0.106383E-03
      0.485000          0.104206E-03
      0.490000          0.102043E-03
      0.495000          0.998980E-04
      0.500000          0.977740E-04
