 I_abs(s)[cm^-1]/c[mg/ml]
       0.00000          0.140911E-01
      0.500000E-02      0.140126E-01
      0.100000E-01      0.137797E-01
      0.150000E-01      0.134000E-01
      0.200000E-01      0.128858E-01
      0.250000E-01      0.122537E-01
      0.300000E-01      0.115231E-01
      0.350000E-01      0.107161E-01
      0.400000E-01      0.985589E-02
      0.450000E-01      0.896594E-02
      0.500000E-01      0.806892E-02
      0.550000E-01      0.718585E-02
      0.600000E-01      0.633533E-02
      0.650000E-01      0.553294E-02
      0.700000E-01      0.479090E-02
      0.750000E-01      0.411786E-02
      0.800000E-01      0.351899E-02
      0.850000E-01      0.299612E-02
      0.900000E-01      0.254815E-02
      0.950000E-01      0.217149E-02
      0.100000          0.186062E-02
      0.105000          0.160863E-02
      0.110000          0.140777E-02
      0.115000          0.125001E-02
      0.120000          0.112746E-02
      0.125000          0.103272E-02
      0.130000          0.959148E-03
      0.135000          0.901061E-03
      0.140000          0.853777E-03
      0.145000          0.813634E-03
      0.150000          0.777924E-03
      0.155000          0.744782E-03
      0.160000          0.713052E-03
      0.165000          0.682134E-03
      0.170000          0.651835E-03
      0.175000          0.622234E-03
      0.180000          0.593565E-03
      0.185000          0.566124E-03
      0.190000          0.540203E-03
      0.195000          0.516043E-03
      0.200000          0.493814E-03
      0.205000          0.473603E-03
      0.210000          0.455424E-03
      0.215000          0.439224E-03
      0.220000          0.424899E-03
      0.225000          0.412310E-03
      0.230000          0.401295E-03
      0.235000          0.391679E-03
      0.240000          0.383286E-03
      0.245000          0.375936E-03
      0.250000          0.369456E-03
      0.255000          0.363676E-03
      0.260000          0.358432E-03
      0.265000          0.353566E-03
      0.270000          0.348928E-03
      0.275000          0.344380E-03
      0.280000          0.339791E-03
      0.285000          0.335047E-03
      0.290000          0.330047E-03
      0.295000          0.324710E-03
      0.300000          0.318971E-03
      0.305000          0.312788E-03
      0.310000          0.306135E-03
      0.315000          0.299007E-03
      0.320000          0.291417E-03
      0.325000          0.283394E-03
      0.330000          0.274984E-03
      0.335000          0.266244E-03
      0.340000          0.257244E-03
      0.345000          0.248065E-03
      0.350000          0.238791E-03
      0.355000          0.229515E-03
      0.360000          0.220328E-03
      0.365000          0.211322E-03
      0.370000          0.202584E-03
      0.375000          0.194193E-03
      0.380000          0.186215E-03
      0.385000          0.178706E-03
      0.390000          0.171704E-03
      0.395000          0.165231E-03
      0.400000          0.159291E-03
      0.405000          0.153872E-03
      0.410000          0.148951E-03
      0.415000          0.144488E-03
      0.420000          0.140438E-03
      0.425000          0.136752E-03
      0.430000          0.133377E-03
      0.435000          0.130266E-03
      0.440000          0.127375E-03
      0.445000          0.124667E-03
      0.450000          0.122115E-03
      0.455000          0.119698E-03
      0.460000          0.117406E-03
      0.465000          0.115233E-03
      0.470000          0.113177E-03
      0.475000          0.111240E-03
      0.480000          0.109425E-03
      0.485000          0.107731E-03
      0.490000          0.106157E-03
      0.495000          0.104695E-03
      0.500000          0.103338E-03
