 I_abs(s)[cm^-1]/c[mg/ml]
       0.00000          0.144684E-01
      0.500000E-02      0.144141E-01
      0.100000E-01      0.142525E-01
      0.150000E-01      0.139870E-01
      0.200000E-01      0.136235E-01
      0.250000E-01      0.131695E-01
      0.300000E-01      0.126348E-01
      0.350000E-01      0.120301E-01
      0.400000E-01      0.113678E-01
      0.450000E-01      0.106605E-01
      0.500000E-01      0.992161E-02
      0.550000E-01      0.916427E-02
      0.600000E-01      0.840131E-02
      0.650000E-01      0.764484E-02
      0.700000E-01      0.690592E-02
      0.750000E-01      0.619439E-02
      0.800000E-01      0.551861E-02
      0.850000E-01      0.488537E-02
      0.900000E-01      0.429981E-02
      0.950000E-01      0.376542E-02
      0.100000          0.328410E-02
      0.105000          0.285625E-02
      0.110000          0.248091E-02
      0.115000          0.215597E-02
      0.120000          0.187833E-02
      0.125000          0.164414E-02
      0.130000          0.144902E-02
      0.135000          0.128826E-02
      0.140000          0.115704E-02
      0.145000          0.105060E-02
      0.150000          0.964371E-03
      0.155000          0.894156E-03
      0.160000          0.836173E-03
      0.165000          0.787147E-03
      0.170000          0.744332E-03
      0.175000          0.705525E-03
      0.180000          0.669044E-03
      0.185000          0.633694E-03
      0.190000          0.598713E-03
      0.195000          0.563710E-03
      0.200000          0.528595E-03
      0.205000          0.493509E-03
      0.210000          0.458755E-03
      0.215000          0.424735E-03
      0.220000          0.391892E-03
      0.225000          0.360664E-03
      0.230000          0.331445E-03
      0.235000          0.304562E-03
      0.240000          0.280251E-03
      0.245000          0.258654E-03
      0.250000          0.239815E-03
      0.255000          0.223689E-03
      0.260000          0.210153E-03
      0.265000          0.199014E-03
      0.270000          0.190034E-03
      0.275000          0.182939E-03
      0.280000          0.177442E-03
      0.285000          0.173250E-03
      0.290000          0.170082E-03
      0.295000          0.167679E-03
      0.300000          0.165808E-03
      0.305000          0.164269E-03
      0.310000          0.162899E-03
      0.315000          0.161568E-03
      0.320000          0.160181E-03
      0.325000          0.158677E-03
      0.330000          0.157018E-03
      0.335000          0.155192E-03
      0.340000          0.153205E-03
      0.345000          0.151076E-03
      0.350000          0.148836E-03
      0.355000          0.146520E-03
      0.360000          0.144166E-03
      0.365000          0.141813E-03
      0.370000          0.139497E-03
      0.375000          0.137249E-03
      0.380000          0.135097E-03
      0.385000          0.133061E-03
      0.390000          0.131158E-03
      0.395000          0.129396E-03
      0.400000          0.127777E-03
      0.405000          0.126300E-03
      0.410000          0.124955E-03
      0.415000          0.123730E-03
      0.420000          0.122610E-03
      0.425000          0.121573E-03
      0.430000          0.120599E-03
      0.435000          0.119666E-03
      0.440000          0.118750E-03
      0.445000          0.117830E-03
      0.450000          0.116885E-03
      0.455000          0.115898E-03
      0.460000          0.114856E-03
      0.465000          0.113748E-03
      0.470000          0.112570E-03
      0.475000          0.111320E-03
      0.480000          0.110004E-03
      0.485000          0.108631E-03
      0.490000          0.107212E-03
      0.495000          0.105766E-03
      0.500000          0.104310E-03
