 I_abs(s)[cm^-1]/c[mg/ml]
       0.00000          0.141068E-01
      0.500000E-02      0.140408E-01
      0.100000E-01      0.138450E-01
      0.150000E-01      0.135250E-01
      0.200000E-01      0.130903E-01
      0.250000E-01      0.125532E-01
      0.300000E-01      0.119288E-01
      0.350000E-01      0.112337E-01
      0.400000E-01      0.104858E-01
      0.450000E-01      0.970321E-02
      0.500000E-01      0.890370E-02
      0.550000E-01      0.810387E-02
      0.600000E-01      0.731874E-02
      0.650000E-01      0.656126E-02
      0.700000E-01      0.584204E-02
      0.750000E-01      0.516924E-02
      0.800000E-01      0.454854E-02
      0.850000E-01      0.398328E-02
      0.900000E-01      0.347468E-02
      0.950000E-01      0.302216E-02
      0.100000          0.262367E-02
      0.105000          0.227605E-02
      0.110000          0.197538E-02
      0.115000          0.171731E-02
      0.120000          0.149736E-02
      0.125000          0.131110E-02
      0.130000          0.115431E-02
      0.135000          0.102312E-02
      0.140000          0.914040E-03
      0.145000          0.823954E-03
      0.150000          0.750119E-03
      0.155000          0.690111E-03
      0.160000          0.641784E-03
      0.165000          0.603213E-03
      0.170000          0.572661E-03
      0.175000          0.548545E-03
      0.180000          0.529426E-03
      0.185000          0.514000E-03
      0.190000          0.501109E-03
      0.195000          0.489753E-03
      0.200000          0.479100E-03
      0.205000          0.468500E-03
      0.210000          0.457487E-03
      0.215000          0.445777E-03
      0.220000          0.433251E-03
      0.225000          0.419937E-03
      0.230000          0.405977E-03
      0.235000          0.391594E-03
      0.240000          0.377057E-03
      0.245000          0.362647E-03
      0.250000          0.348624E-03
      0.255000          0.335206E-03
      0.260000          0.322550E-03
      0.265000          0.310749E-03
      0.270000          0.299828E-03
      0.275000          0.289751E-03
      0.280000          0.280439E-03
      0.285000          0.271777E-03
      0.290000          0.263639E-03
      0.295000          0.255899E-03
      0.300000          0.248446E-03
      0.305000          0.241194E-03
      0.310000          0.234088E-03
      0.315000          0.227102E-03
      0.320000          0.220243E-03
      0.325000          0.213539E-03
      0.330000          0.207037E-03
      0.335000          0.200790E-03
      0.340000          0.194849E-03
      0.345000          0.189260E-03
      0.350000          0.184052E-03
      0.355000          0.179241E-03
      0.360000          0.174823E-03
      0.365000          0.170777E-03
      0.370000          0.167071E-03
      0.375000          0.163660E-03
      0.380000          0.160495E-03
      0.385000          0.157529E-03
      0.390000          0.154713E-03
      0.395000          0.152009E-03
      0.400000          0.149384E-03
      0.405000          0.146813E-03
      0.410000          0.144279E-03
      0.415000          0.141771E-03
      0.420000          0.139279E-03
      0.425000          0.136797E-03
      0.430000          0.134316E-03
      0.435000          0.131822E-03
      0.440000          0.129301E-03
      0.445000          0.126735E-03
      0.450000          0.124101E-03
      0.455000          0.121378E-03
      0.460000          0.118548E-03
      0.465000          0.115596E-03
      0.470000          0.112519E-03
      0.475000          0.109321E-03
      0.480000          0.106019E-03
      0.485000          0.102642E-03
      0.490000          0.992325E-04
      0.495000          0.958408E-04
      0.500000          0.925247E-04
