 I_abs(s)[cm^-1]/c[mg/ml]
       0.00000          0.130870E-01
      0.500000E-02      0.129680E-01
      0.100000E-01      0.126182E-01
      0.150000E-01      0.120584E-01
      0.200000E-01      0.113212E-01
      0.250000E-01      0.104479E-01
      0.300000E-01      0.948498E-02
      0.350000E-01      0.848008E-02
      0.400000E-01      0.747831E-02
      0.450000E-01      0.651902E-02
      0.500000E-01      0.563344E-02
      0.550000E-01      0.484335E-02
      0.600000E-01      0.416077E-02
      0.650000E-01      0.358864E-02
      0.700000E-01      0.312226E-02
      0.750000E-01      0.275116E-02
      0.800000E-01      0.246129E-02
      0.850000E-01      0.223701E-02
      0.900000E-01      0.206290E-02
      0.950000E-01      0.192506E-02
      0.100000          0.181193E-02
      0.105000          0.171467E-02
      0.110000          0.162703E-02
      0.115000          0.154505E-02
      0.120000          0.146652E-02
      0.125000          0.139040E-02
      0.130000          0.131638E-02
      0.135000          0.124447E-02
      0.140000          0.117477E-02
      0.145000          0.110737E-02
      0.150000          0.104236E-02
      0.155000          0.979864E-03
      0.160000          0.920103E-03
      0.165000          0.863441E-03
      0.170000          0.810368E-03
      0.175000          0.761455E-03
      0.180000          0.717263E-03
      0.185000          0.678238E-03
      0.190000          0.644615E-03
      0.195000          0.616347E-03
      0.200000          0.593071E-03
      0.205000          0.574124E-03
      0.210000          0.558597E-03
      0.215000          0.545427E-03
      0.220000          0.533498E-03
      0.225000          0.521750E-03
      0.230000          0.509275E-03
      0.235000          0.495387E-03
      0.240000          0.479666E-03
      0.245000          0.461968E-03
      0.250000          0.442411E-03
      0.255000          0.421336E-03
      0.260000          0.399251E-03
      0.265000          0.376767E-03
      0.270000          0.354538E-03
      0.275000          0.333197E-03
      0.280000          0.313308E-03
      0.285000          0.295325E-03
      0.290000          0.279568E-03
      0.295000          0.266210E-03
      0.300000          0.255278E-03
      0.305000          0.246664E-03
      0.310000          0.240145E-03
      0.315000          0.235407E-03
      0.320000          0.232077E-03
      0.325000          0.229748E-03
      0.330000          0.228009E-03
      0.335000          0.226466E-03
      0.340000          0.224768E-03
      0.345000          0.222620E-03
      0.350000          0.219794E-03
      0.355000          0.216140E-03
      0.360000          0.211593E-03
      0.365000          0.206167E-03
      0.370000          0.199956E-03
      0.375000          0.193122E-03
      0.380000          0.185882E-03
      0.385000          0.178488E-03
      0.390000          0.171205E-03
      0.395000          0.164282E-03
      0.400000          0.157936E-03
      0.405000          0.152320E-03
      0.410000          0.147515E-03
      0.415000          0.143524E-03
      0.420000          0.140267E-03
      0.425000          0.137603E-03
      0.430000          0.135344E-03
      0.435000          0.133283E-03
      0.440000          0.131221E-03
      0.445000          0.128993E-03
      0.450000          0.126486E-03
      0.455000          0.123653E-03
      0.460000          0.120510E-03
      0.465000          0.117132E-03
      0.470000          0.113634E-03
      0.475000          0.110152E-03
      0.480000          0.106820E-03
      0.485000          0.103751E-03
      0.490000          0.101023E-03
      0.495000          0.986685E-04
      0.500000          0.966793E-04
