 I_abs(s)[cm^-1]/c[mg/ml]
       0.00000          0.142085E-01
      0.500000E-02      0.141310E-01
      0.100000E-01      0.139015E-01
      0.150000E-01      0.135286E-01
      0.200000E-01      0.130261E-01
      0.250000E-01      0.124120E-01
      0.300000E-01      0.117073E-01
      0.350000E-01      0.109346E-01
      0.400000E-01      0.101173E-01
      0.450000E-01      0.927760E-02
      0.500000E-01      0.843627E-02
      0.550000E-01      0.761135E-02
      0.600000E-01      0.681784E-02
      0.650000E-01      0.606750E-02
      0.700000E-01      0.536882E-02
      0.750000E-01      0.472729E-02
      0.800000E-01      0.414574E-02
      0.850000E-01      0.362480E-02
      0.900000E-01      0.316334E-02
      0.950000E-01      0.275890E-02
      0.100000          0.240807E-02
      0.105000          0.210680E-02
      0.110000          0.185063E-02
      0.115000          0.163484E-02
      0.120000          0.145466E-02
      0.125000          0.130532E-02
      0.130000          0.118218E-02
      0.135000          0.108081E-02
      0.140000          0.997110E-03
      0.145000          0.927355E-03
      0.150000          0.868299E-03
      0.155000          0.817206E-03
      0.160000          0.771873E-03
      0.165000          0.730615E-03
      0.170000          0.692232E-03
      0.175000          0.655935E-03
      0.180000          0.621272E-03
      0.185000          0.588038E-03
      0.190000          0.556195E-03
      0.195000          0.525798E-03
      0.200000          0.496946E-03
      0.205000          0.469739E-03
      0.210000          0.444264E-03
      0.215000          0.420586E-03
      0.220000          0.398752E-03
      0.225000          0.378795E-03
      0.230000          0.360734E-03
      0.235000          0.344579E-03
      0.240000          0.330326E-03
      0.245000          0.317944E-03
      0.250000          0.307372E-03
      0.255000          0.298504E-03
      0.260000          0.291190E-03
      0.265000          0.285232E-03
      0.270000          0.280390E-03
      0.275000          0.276397E-03
      0.280000          0.272966E-03
      0.285000          0.269815E-03
      0.290000          0.266680E-03
      0.295000          0.263331E-03
      0.300000          0.259584E-03
      0.305000          0.255307E-03
      0.310000          0.250426E-03
      0.315000          0.244923E-03
      0.320000          0.238833E-03
      0.325000          0.232233E-03
      0.330000          0.225241E-03
      0.335000          0.217998E-03
      0.340000          0.210661E-03
      0.345000          0.203394E-03
      0.350000          0.196353E-03
      0.355000          0.189681E-03
      0.360000          0.183496E-03
      0.365000          0.177885E-03
      0.370000          0.172902E-03
      0.375000          0.168566E-03
      0.380000          0.164860E-03
      0.385000          0.161740E-03
      0.390000          0.159137E-03
      0.395000          0.156964E-03
      0.400000          0.155131E-03
      0.405000          0.153543E-03
      0.410000          0.152116E-03
      0.415000          0.150774E-03
      0.420000          0.149458E-03
      0.425000          0.148121E-03
      0.430000          0.146733E-03
      0.435000          0.145274E-03
      0.440000          0.143732E-03
      0.445000          0.142103E-03
      0.450000          0.140384E-03
      0.455000          0.138576E-03
      0.460000          0.136678E-03
      0.465000          0.134689E-03
      0.470000          0.132608E-03
      0.475000          0.130435E-03
      0.480000          0.128171E-03
      0.485000          0.125819E-03
      0.490000          0.123384E-03
      0.495000          0.120873E-03
      0.500000          0.118299E-03
