 I_abs(s)[cm^-1]/c[mg/ml]
       0.00000          0.120117E-01
      0.500000E-02      0.117536E-01
      0.100000E-01      0.110280E-01
      0.150000E-01      0.996606E-02
      0.200000E-01      0.874593E-02
      0.250000E-01      0.754523E-02
      0.300000E-01      0.649926E-02
      0.350000E-01      0.567650E-02
      0.400000E-01      0.507706E-02
      0.450000E-01      0.465130E-02
      0.500000E-01      0.432909E-02
      0.550000E-01      0.404810E-02
      0.600000E-01      0.377168E-02
      0.650000E-01      0.349242E-02
      0.700000E-01      0.322351E-02
      0.750000E-01      0.298425E-02
      0.800000E-01      0.278694E-02
      0.850000E-01      0.263025E-02
      0.900000E-01      0.250052E-02
      0.950000E-01      0.237865E-02
      0.100000          0.224842E-02
      0.105000          0.210226E-02
      0.110000          0.194257E-02
      0.115000          0.177864E-02
      0.120000          0.162158E-02
      0.125000          0.147971E-02
      0.130000          0.135611E-02
      0.135000          0.124909E-02
      0.140000          0.115435E-02
      0.145000          0.106771E-02
      0.150000          0.986884E-03
      0.155000          0.911916E-03
      0.160000          0.844288E-03
      0.165000          0.785569E-03
      0.170000          0.736268E-03
      0.175000          0.695395E-03
      0.180000          0.660767E-03
      0.185000          0.629765E-03
      0.190000          0.600163E-03
      0.195000          0.570673E-03
      0.200000          0.541099E-03
      0.205000          0.512110E-03
      0.210000          0.484791E-03
      0.215000          0.460139E-03
      0.220000          0.438664E-03
      0.225000          0.420198E-03
      0.230000          0.403957E-03
      0.235000          0.388814E-03
      0.240000          0.373697E-03
      0.245000          0.357948E-03
      0.250000          0.341511E-03
      0.255000          0.324873E-03
      0.260000          0.308781E-03
      0.265000          0.293870E-03
      0.270000          0.280372E-03
      0.275000          0.268037E-03
      0.280000          0.256299E-03
      0.285000          0.244591E-03
      0.290000          0.232647E-03
      0.295000          0.220639E-03
      0.300000          0.209079E-03
      0.305000          0.198546E-03
      0.310000          0.189387E-03
      0.315000          0.181540E-03
      0.320000          0.174567E-03
      0.325000          0.167881E-03
      0.330000          0.161035E-03
      0.335000          0.153923E-03
      0.340000          0.146807E-03
      0.345000          0.140152E-03
      0.350000          0.134376E-03
      0.355000          0.129649E-03
      0.360000          0.125826E-03
      0.365000          0.122548E-03
      0.370000          0.119422E-03
      0.375000          0.116200E-03
      0.380000          0.112850E-03
      0.385000          0.109512E-03
      0.390000          0.106387E-03
      0.395000          0.103615E-03
      0.400000          0.101212E-03
      0.405000          0.990795E-04
      0.410000          0.970653E-04
      0.415000          0.950277E-04
      0.420000          0.928810E-04
      0.425000          0.906071E-04
      0.430000          0.882401E-04
      0.435000          0.858409E-04
      0.440000          0.834723E-04
      0.445000          0.811803E-04
      0.450000          0.789873E-04
      0.455000          0.768947E-04
      0.460000          0.748945E-04
      0.465000          0.729828E-04
      0.470000          0.711698E-04
      0.475000          0.694795E-04
      0.480000          0.679415E-04
      0.485000          0.665777E-04
      0.490000          0.653913E-04
      0.495000          0.643610E-04
      0.500000          0.634433E-04
