 I_abs(s)[cm^-1]/c[mg/ml]
       0.00000          0.123821E-01
      0.500000E-02      0.121691E-01
      0.100000E-01      0.115624E-01
      0.150000E-01      0.106510E-01
      0.200000E-01      0.955889E-02
      0.250000E-01      0.841623E-02
      0.300000E-01      0.733305E-02
      0.350000E-01      0.638140E-02
      0.400000E-01      0.559046E-02
      0.450000E-01      0.495343E-02
      0.500000E-01      0.444166E-02
      0.550000E-01      0.402031E-02
      0.600000E-01      0.366019E-02
      0.650000E-01      0.334321E-02
      0.700000E-01      0.306180E-02
      0.750000E-01      0.281447E-02
      0.800000E-01      0.260074E-02
      0.850000E-01      0.241778E-02
      0.900000E-01      0.225966E-02
      0.950000E-01      0.211872E-02
      0.100000          0.198786E-02
      0.105000          0.186228E-02
      0.110000          0.174013E-02
      0.115000          0.162194E-02
      0.120000          0.150948E-02
      0.125000          0.140458E-02
      0.130000          0.130846E-02
      0.135000          0.122151E-02
      0.140000          0.114346E-02
      0.145000          0.107359E-02
      0.150000          0.101097E-02
      0.155000          0.954492E-03
      0.160000          0.903024E-03
      0.165000          0.855474E-03
      0.170000          0.810948E-03
      0.175000          0.768833E-03
      0.180000          0.728796E-03
      0.185000          0.690671E-03
      0.190000          0.654319E-03
      0.195000          0.619521E-03
      0.200000          0.585975E-03
      0.205000          0.553384E-03
      0.210000          0.521561E-03
      0.215000          0.490503E-03
      0.220000          0.460368E-03
      0.225000          0.431403E-03
      0.230000          0.403861E-03
      0.235000          0.377955E-03
      0.240000          0.353862E-03
      0.245000          0.331746E-03
      0.250000          0.311750E-03
      0.255000          0.293939E-03
      0.260000          0.278219E-03
      0.265000          0.264278E-03
      0.270000          0.251623E-03
      0.275000          0.239694E-03
      0.280000          0.228034E-03
      0.285000          0.216426E-03
      0.290000          0.204930E-03
      0.295000          0.193813E-03
      0.300000          0.183395E-03
      0.305000          0.173905E-03
      0.310000          0.165397E-03
      0.315000          0.157773E-03
      0.320000          0.150863E-03
      0.325000          0.144528E-03
      0.330000          0.138703E-03
      0.335000          0.133389E-03
      0.340000          0.128600E-03
      0.345000          0.124315E-03
      0.350000          0.120458E-03
      0.355000          0.116928E-03
      0.360000          0.113641E-03
      0.365000          0.110556E-03
      0.370000          0.107678E-03
      0.375000          0.105023E-03
      0.380000          0.102583E-03
      0.385000          0.100321E-03
      0.390000          0.981844E-04
      0.395000          0.961393E-04
      0.400000          0.942008E-04
      0.405000          0.924302E-04
      0.410000          0.909064E-04
      0.415000          0.896829E-04
      0.420000          0.887539E-04
      0.425000          0.880468E-04
      0.430000          0.874424E-04
      0.435000          0.868109E-04
      0.440000          0.860471E-04
      0.445000          0.850906E-04
      0.450000          0.839273E-04
      0.455000          0.825785E-04
      0.460000          0.810863E-04
      0.465000          0.795033E-04
      0.470000          0.778875E-04
      0.475000          0.762998E-04
      0.480000          0.747990E-04
      0.485000          0.734338E-04
      0.490000          0.722334E-04
      0.495000          0.712042E-04
      0.500000          0.703358E-04
