 I_abs(s)[cm^-1]/c[mg/ml]
       0.00000          0.124187E-01
      0.500000E-02      0.122090E-01
      0.100000E-01      0.116094E-01
      0.150000E-01      0.107017E-01
      0.200000E-01      0.960213E-02
      0.250000E-01      0.843695E-02
      0.300000E-01      0.731822E-02
      0.350000E-01      0.632581E-02
      0.400000E-01      0.549933E-02
      0.450000E-01      0.484075E-02
      0.500000E-01      0.432524E-02
      0.550000E-01      0.391568E-02
      0.600000E-01      0.357629E-02
      0.650000E-01      0.328158E-02
      0.700000E-01      0.301912E-02
      0.750000E-01      0.278693E-02
      0.800000E-01      0.258776E-02
      0.850000E-01      0.242323E-02
      0.900000E-01      0.228998E-02
      0.950000E-01      0.217912E-02
      0.100000          0.207833E-02
      0.105000          0.197558E-02
      0.110000          0.186254E-02
      0.115000          0.173649E-02
      0.120000          0.160033E-02
      0.125000          0.146079E-02
      0.130000          0.132589E-02
      0.135000          0.120257E-02
      0.140000          0.109523E-02
      0.145000          0.100535E-02
      0.150000          0.932093E-03
      0.155000          0.873233E-03
      0.160000          0.826078E-03
      0.165000          0.788004E-03
      0.170000          0.756615E-03
      0.175000          0.729666E-03
      0.180000          0.705004E-03
      0.185000          0.680645E-03
      0.190000          0.655022E-03
      0.195000          0.627261E-03
      0.200000          0.597350E-03
      0.205000          0.566061E-03
      0.210000          0.534648E-03
      0.215000          0.504406E-03
      0.220000          0.476269E-03
      0.225000          0.450585E-03
      0.230000          0.427132E-03
      0.235000          0.405342E-03
      0.240000          0.384616E-03
      0.245000          0.364586E-03
      0.250000          0.345242E-03
      0.255000          0.326873E-03
      0.260000          0.309879E-03
      0.265000          0.294551E-03
      0.270000          0.280904E-03
      0.275000          0.268637E-03
      0.280000          0.257222E-03
      0.285000          0.246079E-03
      0.290000          0.234772E-03
      0.295000          0.223144E-03
      0.300000          0.211355E-03
      0.305000          0.199811E-03
      0.310000          0.189022E-03
      0.315000          0.179426E-03
      0.320000          0.171258E-03
      0.325000          0.164480E-03
      0.330000          0.158802E-03
      0.335000          0.153772E-03
      0.340000          0.148911E-03
      0.345000          0.143837E-03
      0.350000          0.138364E-03
      0.355000          0.132530E-03
      0.360000          0.126573E-03
      0.365000          0.120850E-03
      0.370000          0.115747E-03
      0.375000          0.111579E-03
      0.380000          0.108525E-03
      0.385000          0.106602E-03
      0.390000          0.105672E-03
      0.395000          0.105486E-03
      0.400000          0.105748E-03
      0.405000          0.106170E-03
      0.410000          0.106523E-03
      0.415000          0.106660E-03
      0.420000          0.106514E-03
      0.425000          0.106077E-03
      0.430000          0.105374E-03
      0.435000          0.104436E-03
      0.440000          0.103291E-03
      0.445000          0.101965E-03
      0.450000          0.100496E-03
      0.455000          0.989332E-04
      0.460000          0.973449E-04
      0.465000          0.957974E-04
      0.470000          0.943366E-04
      0.475000          0.929696E-04
      0.480000          0.916586E-04
      0.485000          0.903322E-04
      0.490000          0.889083E-04
      0.495000          0.873219E-04
      0.500000          0.855451E-04
