 I_abs(s)[cm^-1]/c[mg/ml]
       0.00000          0.121418E-01
      0.500000E-02      0.119562E-01
      0.100000E-01      0.114243E-01
      0.150000E-01      0.106148E-01
      0.200000E-01      0.962576E-02
      0.250000E-01      0.856446E-02
      0.300000E-01      0.752732E-02
      0.350000E-01      0.658499E-02
      0.400000E-01      0.577542E-02
      0.450000E-01      0.510556E-02
      0.500000E-01      0.455964E-02
      0.550000E-01      0.411060E-02
      0.600000E-01      0.373080E-02
      0.650000E-01      0.339931E-02
      0.700000E-01      0.310449E-02
      0.750000E-01      0.284262E-02
      0.800000E-01      0.261405E-02
      0.850000E-01      0.241919E-02
      0.900000E-01      0.225582E-02
      0.950000E-01      0.211837E-02
      0.100000          0.199917E-02
      0.105000          0.189036E-02
      0.110000          0.178591E-02
      0.115000          0.168260E-02
      0.120000          0.157997E-02
      0.125000          0.147946E-02
      0.130000          0.138316E-02
      0.135000          0.129278E-02
      0.140000          0.120915E-02
      0.145000          0.113218E-02
      0.150000          0.106124E-02
      0.155000          0.995522E-03
      0.160000          0.934380E-03
      0.165000          0.877415E-03
      0.170000          0.824415E-03
      0.175000          0.775228E-03
      0.180000          0.729670E-03
      0.185000          0.687499E-03
      0.190000          0.648446E-03
      0.195000          0.612249E-03
      0.200000          0.578666E-03
      0.205000          0.547455E-03
      0.210000          0.518343E-03
      0.215000          0.491013E-03
      0.220000          0.465134E-03
      0.225000          0.440418E-03
      0.230000          0.416680E-03
      0.235000          0.393874E-03
      0.240000          0.372078E-03
      0.245000          0.351435E-03
      0.250000          0.332083E-03
      0.255000          0.314085E-03
      0.260000          0.297407E-03
      0.265000          0.281916E-03
      0.270000          0.267431E-03
      0.275000          0.253768E-03
      0.280000          0.240793E-03
      0.285000          0.228448E-03
      0.290000          0.216757E-03
      0.295000          0.205814E-03
      0.300000          0.195750E-03
      0.305000          0.186689E-03
      0.310000          0.178708E-03
      0.315000          0.171801E-03
      0.320000          0.165870E-03
      0.325000          0.160749E-03
      0.330000          0.156234E-03
      0.335000          0.152146E-03
      0.340000          0.148366E-03
      0.345000          0.144853E-03
      0.350000          0.141627E-03
      0.355000          0.138727E-03
      0.360000          0.136161E-03
      0.365000          0.133871E-03
      0.370000          0.131731E-03
      0.375000          0.129574E-03
      0.380000          0.127246E-03
      0.385000          0.124651E-03
      0.390000          0.121782E-03
      0.395000          0.118728E-03
      0.400000          0.115638E-03
      0.405000          0.112676E-03
      0.410000          0.109974E-03
      0.415000          0.107595E-03
      0.420000          0.105522E-03
      0.425000          0.103670E-03
      0.430000          0.101915E-03
      0.435000          0.100127E-03
      0.440000          0.982005E-04
      0.445000          0.960725E-04
      0.450000          0.937299E-04
      0.455000          0.912034E-04
      0.460000          0.885577E-04
      0.465000          0.858800E-04
      0.470000          0.832689E-04
      0.475000          0.808218E-04
      0.480000          0.786210E-04
      0.485000          0.767177E-04
      0.490000          0.751178E-04
      0.495000          0.737768E-04
      0.500000          0.726058E-04
