 I_abs(s)[cm^-1]/c[mg/ml]
       0.00000          0.117251E-01
      0.500000E-02      0.114457E-01
      0.100000E-01      0.106605E-01
      0.150000E-01      0.951376E-02
      0.200000E-01      0.820143E-02
      0.250000E-01      0.691996E-02
      0.300000E-01      0.582030E-02
      0.350000E-01      0.498026E-02
      0.400000E-01      0.440173E-02
      0.450000E-01      0.402983E-02
      0.500000E-01      0.378429E-02
      0.550000E-01      0.359056E-02
      0.600000E-01      0.340047E-02
      0.650000E-01      0.319783E-02
      0.700000E-01      0.299080E-02
      0.750000E-01      0.279723E-02
      0.800000E-01      0.263072E-02
      0.850000E-01      0.249287E-02
      0.900000E-01      0.237344E-02
      0.950000E-01      0.225663E-02
      0.100000          0.212903E-02
      0.105000          0.198548E-02
      0.110000          0.183028E-02
      0.115000          0.167427E-02
      0.120000          0.152947E-02
      0.125000          0.140427E-02
      0.130000          0.130089E-02
      0.135000          0.121591E-02
      0.140000          0.114276E-02
      0.145000          0.107499E-02
      0.150000          0.100850E-02
      0.155000          0.942340E-03
      0.160000          0.877875E-03
      0.165000          0.817310E-03
      0.170000          0.762274E-03
      0.175000          0.713119E-03
      0.180000          0.669041E-03
      0.185000          0.628721E-03
      0.190000          0.591037E-03
      0.195000          0.555478E-03
      0.200000          0.522130E-03
      0.205000          0.491353E-03
      0.210000          0.463387E-03
      0.215000          0.438114E-03
      0.220000          0.415057E-03
      0.225000          0.393595E-03
      0.230000          0.373220E-03
      0.235000          0.353720E-03
      0.240000          0.335183E-03
      0.245000          0.317856E-03
      0.250000          0.301931E-03
      0.255000          0.287386E-03
      0.260000          0.273936E-03
      0.265000          0.261128E-03
      0.270000          0.248520E-03
      0.275000          0.235866E-03
      0.280000          0.223226E-03
      0.285000          0.210960E-03
      0.290000          0.199598E-03
      0.295000          0.189652E-03
      0.300000          0.181415E-03
      0.305000          0.174838E-03
      0.310000          0.169526E-03
      0.315000          0.164847E-03
      0.320000          0.160137E-03
      0.325000          0.154922E-03
      0.330000          0.149072E-03
      0.335000          0.142834E-03
      0.340000          0.136724E-03
      0.345000          0.131311E-03
      0.350000          0.126982E-03
      0.355000          0.123791E-03
      0.360000          0.121448E-03
      0.365000          0.119451E-03
      0.370000          0.117311E-03
      0.375000          0.114750E-03
      0.380000          0.111796E-03
      0.385000          0.108736E-03
      0.390000          0.105956E-03
      0.395000          0.103747E-03
      0.400000          0.102180E-03
      0.405000          0.101077E-03
      0.410000          0.100103E-03
      0.415000          0.989022E-04
      0.420000          0.972281E-04
      0.425000          0.950126E-04
      0.430000          0.923544E-04
      0.435000          0.894513E-04
      0.440000          0.865154E-04
      0.445000          0.837067E-04
      0.450000          0.811057E-04
      0.455000          0.787212E-04
      0.460000          0.765193E-04
      0.465000          0.744499E-04
      0.470000          0.724629E-04
      0.475000          0.705102E-04
      0.480000          0.685446E-04
      0.485000          0.665236E-04
      0.490000          0.644210E-04
      0.495000          0.622399E-04
      0.500000          0.600181E-04
