 I_abs(s)[cm^-1]/c[mg/ml]
       0.00000          0.125436E-01
      0.500000E-02      0.123610E-01
      0.100000E-01      0.118357E-01
      0.150000E-01      0.110308E-01
      0.200000E-01      0.100374E-01
      0.250000E-01      0.895727E-02
      0.300000E-01      0.788509E-02
      0.350000E-01      0.689426E-02
      0.400000E-01      0.602906E-02
      0.450000E-01      0.530420E-02
      0.500000E-01      0.471052E-02
      0.550000E-01      0.422449E-02
      0.600000E-01      0.381821E-02
      0.650000E-01      0.346747E-02
      0.700000E-01      0.315608E-02
      0.750000E-01      0.287644E-02
      0.800000E-01      0.262723E-02
      0.850000E-01      0.240978E-02
      0.900000E-01      0.222475E-02
      0.950000E-01      0.207019E-02
      0.100000          0.194123E-02
      0.105000          0.183121E-02
      0.110000          0.173334E-02
      0.115000          0.164218E-02
      0.120000          0.155450E-02
      0.125000          0.146919E-02
      0.130000          0.138659E-02
      0.135000          0.130755E-02
      0.140000          0.123265E-02
      0.145000          0.116187E-02
      0.150000          0.109453E-02
      0.155000          0.102974E-02
      0.160000          0.966741E-03
      0.165000          0.905246E-03
      0.170000          0.845527E-03
      0.175000          0.788316E-03
      0.180000          0.734571E-03
      0.185000          0.685218E-03
      0.190000          0.640937E-03
      0.195000          0.602043E-03
      0.200000          0.568451E-03
      0.205000          0.539706E-03
      0.210000          0.515060E-03
      0.215000          0.493578E-03
      0.220000          0.474262E-03
      0.225000          0.456179E-03
      0.230000          0.438582E-03
      0.235000          0.420991E-03
      0.240000          0.403222E-03
      0.245000          0.385343E-03
      0.250000          0.367582E-03
      0.255000          0.350212E-03
      0.260000          0.333456E-03
      0.265000          0.317429E-03
      0.270000          0.302143E-03
      0.275000          0.287558E-03
      0.280000          0.273642E-03
      0.285000          0.260421E-03
      0.290000          0.247988E-03
      0.295000          0.236468E-03
      0.300000          0.225961E-03
      0.305000          0.216485E-03
      0.310000          0.207952E-03
      0.315000          0.200176E-03
      0.320000          0.192923E-03
      0.325000          0.185977E-03
      0.330000          0.179193E-03
      0.335000          0.172520E-03
      0.340000          0.165993E-03
      0.345000          0.159692E-03
      0.350000          0.153692E-03
      0.355000          0.148030E-03
      0.360000          0.142687E-03
      0.365000          0.137604E-03
      0.370000          0.132712E-03
      0.375000          0.127958E-03
      0.380000          0.123328E-03
      0.385000          0.118851E-03
      0.390000          0.114588E-03
      0.395000          0.110616E-03
      0.400000          0.107011E-03
      0.405000          0.103835E-03
      0.410000          0.101128E-03
      0.415000          0.989022E-04
      0.420000          0.971448E-04
      0.425000          0.958141E-04
      0.430000          0.948458E-04
      0.435000          0.941597E-04
      0.440000          0.936694E-04
      0.445000          0.932914E-04
      0.450000          0.929497E-04
      0.455000          0.925774E-04
      0.460000          0.921133E-04
      0.465000          0.915004E-04
      0.470000          0.906864E-04
      0.475000          0.896298E-04
      0.480000          0.883087E-04
      0.485000          0.867285E-04
      0.490000          0.849260E-04
      0.495000          0.829647E-04
      0.500000          0.809239E-04
